'sample interval','SO2'
'0.004 sec','%'
0,89.870
1,89.818
2,89.662
3,89.870
4,89.870
5,89.766
6,89.714
7,89.870
8,89.818
9,89.818
10,89.818
11,89.922
12,89.870
13,89.818
14,89.870
15,89.870
16,89.818
17,89.766
18,89.870
19,89.818
20,89.818
21,89.766
22,89.818
23,89.818
24,89.818
25,89.818
26,89.766
27,89.766
28,89.818
29,89.714
30,89.766
31,89.714
32,89.818
33,89.870
34,89.766
35,89.870
36,89.870
37,89.870
38,89.870
39,89.870
40,89.870
41,89.818
42,89.870
43,89.818
44,89.818
45,89.714
46,89.922
47,89.714
48,89.766
49,89.766
50,89.870
51,89.766
52,89.766
53,89.870
54,89.818
55,89.818
56,89.766
57,89.922
58,89.870
59,89.818
60,89.766
61,89.922
62,89.870
63,89.818
64,89.818
65,89.870
66,89.870
67,89.766
68,89.870
69,89.870
70,89.818
71,89.818
72,89.818
73,89.714
74,89.818
75,89.766
76,89.766
77,89.714
78,89.818
79,89.714
80,89.766
81,89.818
82,89.870
83,89.922
84,89.766
85,89.870
86,89.818
87,89.870
88,89.818
89,89.870
90,89.766
91,89.818
92,89.818
93,89.818
94,89.818
95,89.766
96,89.870
97,89.818
98,89.818
99,89.766
100,89.818
101,89.818
102,89.662
103,89.766
104,89.818
105,89.766
106,89.766
107,89.870
108,89.870
109,89.766
110,89.818
111,89.870
112,89.818
113,89.818
114,89.766
115,89.870
116,89.818
117,89.766
118,89.714
119,89.766
120,89.714
121,89.818
122,89.766
123,89.662
124,89.818
125,89.714
126,89.714
127,89.714
128,89.870
129,89.870
130,89.870
131,89.818
132,89.870
133,89.870
134,89.766
135,89.870
136,89.870
137,89.870
138,89.766
139,89.818
140,89.818
141,89.766
142,89.818
143,89.818
144,89.662
145,89.766
146,89.870
147,89.818
148,89.714
149,89.766
150,89.766
151,89.766
152,89.766
153,89.766
154,89.922
155,89.766
156,89.818
157,89.870
158,89.870
159,89.766
160,89.714
161,89.870
162,89.818
163,89.766
164,89.662
165,89.818
166,89.818
167,89.818
168,89.714
169,89.766
170,89.870
171,89.766
172,89.766
173,89.662
174,89.870
175,89.662
176,89.818
177,89.766
178,89.870
179,89.870
180,89.818
181,89.870
182,89.870
183,89.870
184,89.766
185,89.922
186,89.922
187,89.870
188,89.766
189,89.922
190,89.870
191,89.818
192,89.818
193,89.870
194,89.766
195,89.766
196,89.766
197,89.818
198,89.766
199,89.766
200,89.922
201,89.870
202,89.766
203,89.818
204,89.870
205,89.870
206,89.818
207,89.870
208,89.870
209,89.818
210,89.818
211,89.870
212,89.870
213,89.818
214,89.714
215,89.870
216,89.870
217,89.818
218,89.714
219,89.714
220,89.818
221,89.714
222,89.714
223,89.714
224,89.818
225,89.870
226,89.766
227,89.766
228,89.870
229,89.818
230,89.818
231,89.818
232,89.922
233,89.870
234,89.818
235,89.870
236,89.870
237,89.870
238,89.818
239,89.870
240,89.870
241,89.870
242,89.766
243,89.870
244,89.766
245,89.818
246,89.714
247,89.870
248,89.766
249,89.870
250,89.974
251,89.818
252,89.870
253,89.870
254,89.922
255,89.818
256,89.818
257,89.870
258,89.922
259,89.870
260,89.818
261,89.818
262,89.818
263,89.818
264,89.714
265,89.766
266,89.766
267,89.818
268,89.662
269,89.766
270,89.818
271,89.714
272,89.714
273,89.714
274,89.870
275,89.870
276,89.766
277,89.714
278,89.922
279,89.870
280,89.870
281,89.818
282,89.922
283,89.870
284,89.818
285,89.870
286,89.870
287,89.870
288,89.766
289,89.870
290,89.818
291,89.818
292,89.662
293,89.818
294,89.818
295,89.870
296,89.818
297,89.922
298,89.818
299,89.870
300,89.870
301,89.870
302,89.818
303,89.870
304,89.870
305,89.818
306,89.870
307,89.766
308,89.870
309,89.766
310,89.766
311,89.766
312,89.818
313,89.818
314,89.714
315,89.714
316,89.766
317,89.766
318,89.714
319,89.714
320,89.818
321,89.922
322,89.818
323,89.766
324,89.922
325,89.974
326,89.870
327,89.818
328,89.870
329,89.870
330,89.818
331,89.818
332,89.922
333,89.870
334,89.714
335,89.714
336,89.870
337,89.818
338,89.766
339,89.766
340,89.818
341,89.870
342,89.662
343,89.818
344,89.766
345,89.870
346,89.870
347,89.870
348,89.818
349,89.818
350,89.870
351,89.818
352,89.818
353,89.818
354,89.870
355,89.766
356,89.766
357,89.766
358,89.818
359,89.714
360,89.714
361,89.714
362,89.818
363,89.766
364,89.766
365,89.714
366,89.766
367,89.818
368,89.766
369,89.766
370,89.870
371,89.922
372,89.818
373,89.818
374,89.870
375,89.922
376,89.818
377,89.818
378,89.974
379,89.870
380,89.818
381,89.818
382,89.870
383,89.818
384,89.766
385,89.766
386,89.870
387,89.818
388,89.662
389,89.818
390,89.870
391,89.870
392,89.870
393,89.870
394,89.766
395,89.870
396,89.870
397,89.870
398,89.818
399,89.818
400,89.766
401,89.818
402,89.818
403,89.870
404,89.818
405,89.714
406,89.766
407,89.766
408,89.870
409,89.766
410,89.766
411,89.714
412,89.818
413,89.714
414,89.766
415,89.714
416,89.818
417,89.922
418,89.818
419,89.818
420,89.870
421,89.974
422,89.870
423,89.818
424,89.818
425,89.922
426,89.818
427,89.818
428,89.818
429,89.870
430,89.766
431,89.714
432,89.922
433,89.870
434,89.870
435,89.714
436,89.870
437,89.870
438,89.766
439,89.818
440,89.870
441,89.818
442,89.870
443,89.870
444,89.870
445,89.870
446,89.870
447,89.870
448,89.870
449,89.870
450,89.870
451,89.870
452,89.870
453,89.870
454,89.870
455,89.818
456,89.870
457,89.870
458,89.870
459,89.714
460,89.870
461,89.870
462,89.974
463,89.870
464,89.974
465,89.870
466,89.974
467,90.026
468,89.974
469,89.922
470,89.922
471,90.026
472,89.870
473,89.870
474,89.870
475,89.974
476,89.870
477,89.870
478,89.870
479,89.922
480,89.870
481,89.870
482,89.922
483,89.974
484,89.818
485,89.818
486,89.922
487,89.974
488,89.974
489,89.818
490,89.870
491,90.026
492,90.026
493,89.870
494,89.922
495,89.922
496,89.922
497,89.870
498,89.870
499,89.922
500,89.818
501,89.818
502,89.870
503,89.870
504,89.818
505,89.870
506,89.922
507,89.870
508,89.870
509,89.818
510,89.974
511,89.922
512,89.974
513,89.922
514,89.974
515,89.870
516,89.974
517,89.974
518,89.922
519,89.870
520,89.870
521,89.974
522,89.922
523,89.870
524,89.870
525,89.870
526,89.870
527,89.870
528,89.870
529,89.974
530,89.870
531,89.870
532,89.922
533,90.026
534,89.818
535,89.870
536,89.922
537,89.974
538,89.974
539,89.818
540,89.870
541,89.870
542,89.922
543,89.766
544,89.870
545,89.870
546,89.922
547,89.766
548,89.818
549,89.922
550,89.870
551,89.818
552,89.870
553,89.922
554,89.870
555,89.766
556,89.870
557,89.922
558,89.870
559,89.870
560,89.922
561,89.870
562,89.974
563,89.922
564,89.922
565,89.870
566,89.922
567,89.922
568,89.922
569,89.870
570,89.870
571,89.974
572,89.870
573,89.870
574,89.922
575,90.026
576,89.870
577,89.870
578,89.870
579,89.922
580,89.818
581,89.922
582,89.870
583,89.922
584,89.974
585,89.922
586,89.870
587,89.870
588,89.974
589,89.870
590,89.870
591,89.870
592,89.974
593,89.766
594,89.870
595,89.870
596,89.870
597,89.818
598,89.870
599,89.922
600,89.870
601,89.818
602,89.818
603,89.922
604,89.870
605,89.766
606,89.870
607,89.922
608,89.922
609,89.974
610,89.870
611,89.922
612,89.974
613,89.974
614,90.026
615,89.870
616,90.026
617,89.974
618,89.974
619,89.922
620,90.078
621,89.974
622,90.026
623,90.026
624,90.026
625,90.078
626,89.922
627,90.078
628,90.078
629,90.078
630,89.922
631,90.078
632,89.974
633,90.078
634,90.078
635,90.026
636,89.922
637,90.078
638,90.078
639,89.974
640,90.026
641,90.026
642,90.026
643,89.870
644,89.974
645,90.026
646,89.974
647,89.870
648,89.922
649,90.026
650,89.974
651,89.870
652,89.922
653,90.078
654,90.078
655,90.078
656,89.974
657,90.078
658,90.078
659,90.026
660,89.974
661,90.026
662,90.026
663,90.078
664,90.026
665,90.026
666,90.026
667,90.026
668,90.026
669,90.026
670,90.026
671,89.974
672,90.026
673,89.974
674,90.078
675,90.026
676,89.922
677,90.078
678,89.974
679,90.078
680,90.078
681,90.026
682,89.974
683,90.078
684,90.130
685,90.026
686,89.922
687,90.026
688,90.078
689,89.974
690,89.922
691,89.922
692,90.078
693,89.870
694,89.974
695,90.026
696,90.078
697,89.922
698,90.026
699,90.026
700,90.078
701,89.922
702,90.026
703,90.130
704,90.078
705,90.078
706,89.974
707,90.026
708,90.078
709,90.078
710,89.922
711,89.974
712,90.078
713,90.078
714,89.974
715,90.026
716,90.026
717,89.974
718,90.026
719,89.974
720,90.026
721,89.974
722,89.922
723,90.078
724,90.078
725,90.026
726,89.922
727,90.078
728,89.974
729,90.078
730,90.078
731,90.026
732,89.922
733,90.078
734,90.078
735,89.974
736,89.818
737,90.078
738,90.026
739,89.870
740,89.922
741,90.026
742,90.078
743,89.974
744,90.026
745,90.026
746,90.078
747,89.870
748,90.026
749,90.078
750,90.078
751,90.026
752,90.078
753,90.026
754,90.078
755,90.078
756,89.974
757,90.078
758,90.078
759,90.078
760,89.974
761,90.026
762,90.026
763,90.026
764,89.974
765,89.974
766,90.078
767,89.974
768,89.974
769,90.078
770,90.078
771,89.974
772,89.974
773,90.026
774,90.078
775,90.026
776,90.078
777,90.078
778,89.974
779,89.974
780,90.078
781,89.974
782,89.870
783,90.026
784,89.974
785,89.922
786,89.870
787,89.974
788,90.078
789,89.974
790,89.974
791,90.026
792,90.078
793,89.974
794,90.026
795,90.078
796,90.130
797,89.870
798,90.078
799,89.974
800,90.078
801,90.078
802,90.026
803,90.026
804,90.078
805,90.078
806,89.974
807,89.974
808,90.026
809,90.078
810,89.922
811,89.974
812,90.026
813,90.026
814,89.922
815,90.078
816,90.078
817,90.078
818,89.870
819,90.026
820,90.078
821,89.974
822,89.922
823,89.922
824,90.026
825,89.922
826,89.974
827,89.974
828,89.870
829,89.974
830,89.974
831,89.974
832,89.870
833,90.026
834,90.078
835,89.974
836,89.974
837,90.026
838,90.078
839,90.026
840,89.974
841,90.078
842,90.078
843,89.922
844,90.078
845,90.078
846,90.130
847,90.078
848,90.078
849,90.026
850,90.130
851,90.078
852,90.026
853,89.922
854,90.078
855,90.078
856,89.922
857,89.922
858,90.078
859,90.078
860,89.974
861,90.078
862,90.078
863,90.130
864,89.922
865,90.078
866,90.078
867,90.078
868,89.870
869,90.078
870,90.078
871,89.974
872,89.974
873,89.974
874,90.026
875,89.974
876,90.078
877,89.922
878,89.922
879,89.922
880,90.026
881,89.974
882,89.922
883,89.974
884,90.078
885,89.974
886,89.974
887,90.078
888,90.078
889,89.974
890,90.026
891,90.078
892,90.078
893,89.922
894,90.026
895,90.026
896,90.078
897,90.078
898,90.026
899,89.922
900,90.078
901,90.078
902,89.974
903,89.870
904,90.078
905,90.078
906,89.922
907,89.974
908,90.078
909,90.130
910,90.026
911,90.078
912,90.078
913,90.078
914,89.818
915,90.026
916,90.078
917,90.026
918,89.870
919,89.974
920,90.026
921,89.974
922,89.974
923,89.974
924,90.026
925,89.922
926,90.078
927,89.922
928,89.922
929,89.974
930,90.078
931,89.922
932,89.974
933,89.974
934,90.078
935,90.026
936,89.974
937,90.078
938,90.078
939,89.922
940,90.078
941,90.130
942,89.974
943,90.078
944,90.026
945,90.026
946,89.974
947,90.078
948,90.026
949,89.974
950,90.078
951,90.078
952,89.974
953,89.870
954,90.078
955,90.130
956,90.078
957,89.974
958,90.078
959,90.078
960,89.974
961,90.026
962,90.078
963,90.078
964,89.818
965,90.078
966,90.078
967,90.078
968,89.870
969,90.026
970,90.026
971,90.026
972,89.922
973,89.974
974,89.974
975,89.922
976,89.974
977,89.922
978,89.922
979,89.974
980,90.078
981,89.922
982,90.026
983,90.078
984,90.078
985,89.974
986,90.078
987,90.078
988,89.974
989,89.922
990,89.974
991,90.026
992,89.974
993,90.078
994,89.974
995,90.026
996,89.974
997,90.026
998,90.026
999,89.974
1000,90.078
1001,90.078
1002,89.974
1003,89.922
1004,90.130
1005,90.078
1006,90.026
1007,89.870
1008,90.078
1009,90.078
1010,89.870
1011,89.922
1012,90.078
1013,90.026
1014,89.922
1015,89.974
1016,89.974
1017,89.974
1018,89.870
1019,89.974
1020,89.974
1021,89.974
1022,89.922
1023,89.974
1024,90.026
1025,90.078
1026,90.078
1027,89.974
1028,90.078
1029,90.078
1030,90.078
1031,89.922
1032,90.078
1033,89.974
1034,90.078
1035,89.870
1036,90.078
1037,90.026
1038,90.078
1039,89.974
1040,89.974
1041,89.974
1042,89.974
1043,90.026
1044,90.078
1045,90.026
1046,89.974
1047,90.078
1048,90.078
1049,89.974
1050,90.078
1051,90.130
1052,90.026
1053,89.974
1054,90.130
1055,90.078
1056,89.974
1057,89.922
1058,90.078
1059,90.026
1060,89.818
1061,89.974
1062,90.026
1063,90.026
1064,89.922
1065,89.922
1066,89.974
1067,90.026
1068,90.026
1069,90.078
1070,89.974
1071,90.130
1072,90.130
1073,90.078
1074,90.026
1075,90.078
1076,90.078
1077,89.974
1078,89.974
1079,90.078
1080,90.078
1081,89.766
1082,90.026
1083,90.078
1084,90.026
1085,89.870
1086,90.026
1087,90.078
1088,90.026
1089,89.974
1090,90.026
1091,90.078
1092,90.026
1093,90.078
1094,90.078
1095,90.026
1096,90.078
1097,90.130
1098,90.078
1099,89.974
1100,89.974
1101,90.078
1102,89.974
1103,89.974
1104,90.078
1105,90.078
1106,89.870
1107,89.870
1108,90.026
1109,89.974
1110,89.922
1111,89.922
1112,90.026
1113,90.026
1114,90.026
1115,90.078
1116,90.078
1117,90.234
1118,90.130
1119,90.078
1120,90.078
1121,90.182
1122,90.182
1123,90.078
1124,90.078
1125,90.182
1126,90.182
1127,90.026
1128,90.078
1129,90.130
1130,90.130
1131,89.974
1132,90.078
1133,90.130
1134,90.078
1135,89.974
1136,90.130
1137,90.078
1138,90.078
1139,90.026
1140,90.130
1141,90.078
1142,90.078
1143,90.130
1144,90.130
1145,90.078
1146,90.078
1147,90.286
1148,90.078
1149,90.078
1150,90.078
1151,90.182
1152,90.078
1153,90.078
1154,90.078
1155,90.130
1156,89.922
1157,90.026
1158,90.130
1159,90.078
1160,90.078
1161,90.078
1162,90.130
1163,90.078
1164,90.078
1165,90.078
1166,90.078
1167,90.130
1168,90.078
1169,90.130
1170,90.078
1171,90.182
1172,90.182
1173,90.130
1174,90.078
1175,90.234
1176,90.182
1177,90.026
1178,90.078
1179,90.130
1180,90.078
1181,89.974
1182,90.130
1183,90.130
1184,90.130
1185,90.078
1186,90.078
1187,90.182
1188,90.078
1189,90.078
1190,90.130
1191,90.130
1192,90.130
1193,90.130
1194,90.078
1195,90.078
1196,90.078
1197,90.182
1198,90.026
1199,90.078
1200,90.078
1201,90.182
1202,89.974
1203,90.078
1204,90.026
1205,90.078
1206,90.078
1207,90.026
1208,90.078
1209,90.026
1210,90.078
1211,90.026
1212,90.182
1213,90.026
1214,90.078
1215,90.026
1216,90.078
1217,90.078
1218,90.130
1219,90.078
1220,90.078
1221,90.182
1222,90.234
1223,90.078
1224,90.078
1225,90.234
1226,90.234
1227,89.974
1228,90.078
1229,90.130
1230,90.130
1231,90.078
1232,90.078
1233,90.130
1234,90.130
1235,90.026
1236,90.130
1237,90.130
1238,90.130
1239,90.078
1240,90.182
1241,90.078
1242,90.182
1243,90.130
1244,90.130
1245,90.078
1246,90.130
1247,90.130
1248,90.026
1249,90.078
1250,90.078
1251,90.182
1252,89.974
1253,90.078
1254,90.078
1255,90.130
1256,90.078
1257,90.078
1258,90.078
1259,90.078
1260,90.078
1261,90.078
1262,90.130
1263,90.078
1264,90.078
1265,90.078
1266,90.078
1267,90.182
1268,90.286
1269,90.078
1270,90.078
1271,90.234
1272,90.182
1273,90.026
1274,90.078
1275,90.182
1276,90.182
1277,90.078
1278,90.078
1279,90.234
1280,90.182
1281,90.078
1282,90.078
1283,90.286
1284,90.130
1285,90.078
1286,90.130
1287,90.234
1288,90.182
1289,90.078
1290,90.130
1291,90.130
1292,90.130
1293,90.182
1294,90.078
1295,90.078
1296,90.130
1297,90.182
1298,90.026
1299,90.078
1300,90.078
1301,90.130
1302,90.078
1303,90.078
1304,90.078
1305,90.130
1306,89.974
1307,90.078
1308,90.078
1309,90.078
1310,90.078
1311,90.078
1312,90.130
1313,90.130
1314,90.130
1315,90.182
1316,90.130
1317,90.130
1318,90.234
1319,90.078
1320,90.078
1321,90.078
1322,90.182
1323,89.922
1324,89.974
1325,90.130
1326,90.182
1327,90.130
1328,90.078
1329,90.182
1330,90.130
1331,90.078
1332,90.078
1333,90.182
1334,90.130
1335,90.078
1336,90.130
1337,90.130
1338,90.182
1339,90.078
1340,90.130
1341,90.078
1342,90.130
1343,90.130
1344,90.078
1345,90.078
1346,90.130
1347,90.130
1348,89.974
1349,90.078
1350,90.078
1351,90.078
1352,90.078
1353,90.078
1354,90.078
1355,90.130
1356,90.078
1357,90.078
1358,90.130
1359,90.182
1360,90.130
1361,90.130
1362,90.130
1363,90.078
1364,90.234
1365,90.078
1366,90.078
1367,90.078
1368,90.234
1369,90.026
1370,90.078
1371,90.078
1372,90.234
1373,90.078
1374,90.026
1375,90.078
1376,90.182
1377,90.078
1378,90.078
1379,90.234
1380,90.234
1381,90.130
1382,90.078
1383,90.234
1384,90.130
1385,90.078
1386,90.078
1387,90.182
1388,90.182
1389,90.078
1390,90.130
1391,90.078
1392,90.130
1393,90.078
1394,90.026
1395,90.026
1396,90.078
1397,90.078
1398,90.026
1399,90.078
1400,90.078
1401,90.078
1402,90.078
1403,90.130
1404,90.130
1405,90.182
1406,90.078
1407,90.182
1408,90.182
1409,90.130
1410,90.078
1411,90.182
1412,90.078
1413,90.078
1414,90.182
1415,90.078
1416,90.078
1417,90.078
1418,90.234
1419,89.974
1420,90.078
1421,90.078
1422,90.182
1423,90.078
1424,90.078
1425,90.078
1426,90.182
1427,90.078
1428,90.078
1429,90.182
1430,90.234
1431,90.078
1432,90.078
1433,90.234
1434,90.078
1435,90.130
1436,90.078
1437,90.078
1438,90.078
1439,90.130
1440,89.974
1441,89.974
1442,90.078
1443,90.078
1444,89.922
1445,90.026
1446,90.078
1447,90.130
1448,90.078
1449,90.078
1450,90.234
1451,90.130
1452,90.078
1453,90.234
1454,90.234
1455,90.130
1456,90.078
1457,90.130
1458,90.130
1459,90.130
1460,90.078
1461,90.130
1462,90.078
1463,90.078
1464,90.130
1465,90.026
1466,90.078
1467,90.078
1468,90.234
1469,90.078
1470,90.078
1471,90.078
1472,90.234
1473,90.078
1474,90.078
1475,90.078
1476,90.234
1477,90.130
1478,90.078
1479,90.130
1480,90.182
1481,90.078
1482,90.078
1483,90.130
1484,90.130
1485,90.078
1486,90.078
1487,90.078
1488,90.078
1489,90.078
1490,89.870
1491,89.974
1492,90.078
1493,90.078
1494,90.078
1495,90.026
1496,90.130
1497,90.182
1498,90.078
1499,90.078
1500,90.234
1501,90.182
1502,90.078
1503,90.130
1504,90.234
1505,90.130
1506,90.078
1507,90.130
1508,90.078
1509,90.130
1510,90.078
1511,90.078
1512,90.078
1513,90.130
1514,90.078
1515,90.026
1516,90.078
1517,90.078
1518,90.234
1519,90.182
1520,90.078
1521,90.130
1522,90.234
1523,90.078
1524,90.078
1525,90.130
1526,90.182
1527,90.130
1528,90.078
1529,90.130
1530,90.182
1531,90.078
1532,90.078
1533,90.078
1534,90.078
1535,90.078
1536,89.922
1537,90.026
1538,90.078
1539,90.078
1540,89.974
1541,90.026
1542,90.130
1543,90.130
1544,90.078
1545,90.078
1546,90.130
1547,90.182
1548,90.078
1549,90.078
1550,90.234
1551,90.130
1552,90.130
1553,90.078
1554,90.286
1555,90.130
1556,90.078
1557,90.130
1558,90.130
1559,90.078
1560,90.078
1561,90.026
1562,90.078
1563,90.130
1564,90.078
1565,90.078
1566,90.078
1567,90.078
1568,90.130
1569,90.078
1570,90.078
1571,90.130
1572,90.234
1573,90.078
1574,90.130
1575,90.078
1576,90.130
1577,90.078
1578,90.130
1579,90.078
1580,90.078
1581,90.078
1582,90.078
1583,90.078
1584,90.078
1585,90.130
1586,89.870
1587,90.078
1588,90.078
1589,90.130
1590,90.078
1591,90.078
1592,90.078
1593,90.130
1594,90.026
1595,90.026
1596,90.130
1597,90.182
1598,90.078
1599,90.078
1600,90.286
1601,90.130
1602,90.078
1603,90.078
1604,90.182
1605,90.078
1606,90.078
1607,90.078
1608,90.078
1609,90.078
1610,90.078
1611,90.078
1612,90.078
1613,90.130
1614,90.182
1615,90.182
1616,90.130
1617,90.182
1618,90.130
1619,90.182
1620,90.182
1621,90.234
1622,90.182
1623,90.078
1624,90.234
1625,90.130
1626,90.182
1627,90.130
1628,90.182
1629,90.130
1630,90.234
1631,90.182
1632,90.026
1633,90.078
1634,90.130
1635,90.234
1636,90.078
1637,90.130
1638,90.182
1639,90.234
1640,90.130
1641,90.130
1642,90.130
1643,90.286
1644,90.130
1645,90.234
1646,90.286
1647,90.286
1648,90.130
1649,90.182
1650,90.286
1651,90.182
1652,90.182
1653,90.078
1654,90.286
1655,90.182
1656,90.182
1657,90.078
1658,90.286
1659,90.234
1660,90.182
1661,90.182
1662,90.182
1663,90.286
1664,90.234
1665,90.234
1666,90.130
1667,90.182
1668,90.234
1669,90.182
1670,90.182
1671,90.234
1672,90.182
1673,90.130
1674,90.182
1675,90.130
1676,90.234
1677,90.130
1678,90.130
1679,90.130
1680,90.182
1681,90.130
1682,90.026
1683,90.078
1684,90.234
1685,90.286
1686,90.182
1687,90.182
1688,90.182
1689,90.286
1690,90.234
1691,90.130
1692,90.130
1693,90.286
1694,90.130
1695,90.130
1696,90.130
1697,90.286
1698,90.130
1699,90.078
1700,90.234
1701,90.234
1702,90.130
1703,90.026
1704,90.286
1705,90.234
1706,90.286
1707,90.026
1708,90.286
1709,90.286
1710,90.286
1711,90.182
1712,90.182
1713,90.286
1714,90.182
1715,90.182
1716,90.182
1717,90.286
1718,90.182
1719,90.234
1720,90.182
1721,90.234
1722,90.130
1723,90.130
1724,90.130
1725,90.182
1726,90.182
1727,90.078
1728,90.078
1729,90.130
1730,90.234
1731,90.078
1732,90.182
1733,90.182
1734,90.234
1735,90.234
1736,90.234
1737,90.130
1738,90.286
1739,90.286
1740,90.182
1741,90.182
1742,90.130
1743,90.286
1744,90.182
1745,90.182
1746,90.234
1747,90.286
1748,90.078
1749,90.182
1750,90.286
1751,90.286
1752,90.182
1753,90.078
1754,90.182
1755,90.286
1756,90.234
1757,90.130
1758,90.234
1759,90.286
1760,90.234
1761,90.130
1762,90.234
1763,90.234
1764,90.286
1765,90.182
1766,90.182
1767,90.234
1768,90.182
1769,90.130
1770,90.130
1771,90.234
1772,90.130
1773,90.078
1774,90.078
1775,90.130
1776,90.130
1777,90.078
1778,90.078
1779,90.234
1780,90.234
1781,90.234
1782,90.286
1783,90.182
1784,90.286
1785,90.286
1786,90.286
1787,90.286
1788,90.286
1789,90.442
1790,90.286
1791,90.286
1792,90.286
1793,90.390
1794,90.234
1795,90.286
1796,90.286
1797,90.286
1798,90.182
1799,90.078
1800,90.182
1801,90.286
1802,90.286
1803,90.182
1804,90.286
1805,90.286
1806,90.338
1807,90.234
1808,90.286
1809,90.286
1810,90.338
1811,90.182
1812,90.234
1813,90.286
1814,90.286
1815,90.182
1816,90.182
1817,90.286
1818,90.286
1819,90.234
1820,90.130
1821,90.286
1822,90.234
1823,90.182
1824,90.078
1825,90.286
1826,90.182
1827,90.234
1828,90.286
1829,90.234
1830,90.286
1831,90.286
1832,90.286
1833,90.286
1834,90.338
1835,90.338
1836,90.286
1837,90.234
1838,90.286
1839,90.286
1840,90.286
1841,90.182
1842,90.234
1843,90.286
1844,90.286
1845,90.182
1846,90.286
1847,90.286
1848,90.286
1849,90.078
1850,90.234
1851,90.338
1852,90.286
1853,90.286
1854,90.286
1855,90.286
1856,90.338
1857,90.234
1858,90.286
1859,90.286
1860,90.338
1861,90.182
1862,90.286
1863,90.286
1864,90.286
1865,90.078
1866,90.234
1867,90.286
1868,90.286
1869,90.130
1870,90.130
1871,90.286
1872,90.234
1873,90.182
1874,90.078
1875,90.286
1876,90.182
1877,90.286
1878,90.234
1879,90.286
1880,90.286
1881,90.338
1882,90.338
1883,90.286
1884,90.286
1885,90.286
1886,90.286
1887,90.234
1888,90.286
1889,90.286
1890,90.286
1891,90.286
1892,90.286
1893,90.234
1894,90.182
1895,90.130
1896,90.182
1897,90.286
1898,90.286
1899,90.286
1900,90.234
1901,90.286
1902,90.338
1903,90.857
1904,90.182
1905,90.390
1906,90.286
1907,90.286
1908,90.286
1909,90.286
1910,90.338
1911,90.182
1912,90.234
1913,90.234
1914,90.286
1915,90.078
1916,90.182
1917,90.286
1918,90.286
1919,90.130
1920,90.130
1921,90.286
1922,90.286
1923,90.286
1924,90.234
1925,90.286
1926,90.286
1927,90.390
1928,90.286
1929,90.286
1930,90.286
1931,90.286
1932,90.286
1933,90.286
1934,90.286
1935,90.338
1936,90.286
1937,90.234
1938,90.338
1939,90.234
1940,90.286
1941,90.286
1942,90.286
1943,90.182
1944,90.286
1945,90.130
1946,90.286
1947,90.286
1948,90.286
1949,90.286
1950,90.234
1951,90.338
1952,90.338
1953,90.286
1954,90.234
1955,90.286
1956,90.390
1957,90.130
1958,90.130
1959,90.286
1960,90.286
1961,90.182
1962,90.234
1963,90.234
1964,90.286
1965,90.130
1966,90.130
1967,90.286
1968,90.286
1969,90.182
1970,90.130
1971,90.338
1972,90.286
1973,90.286
1974,90.234
1975,90.286
1976,90.286
1977,90.338
1978,90.286
1979,90.286
1980,90.286
1981,90.338
1982,90.286
1983,90.286
1984,90.286
1985,90.286
1986,90.338
1987,90.234
1988,90.286
1989,90.234
1990,90.286
1991,90.182
1992,90.286
1993,90.234
1994,90.286
1995,90.286
1996,90.286
1997,90.286
1998,90.286
1999,90.286
2000,90.234
2001,90.286
2002,90.286
2003,90.234
2004,90.130
2005,90.286
2006,90.286
2007,90.182
2008,90.130
2009,90.234
2010,90.286
2011,90.182
2012,90.234
2013,90.234
2014,90.286
2015,90.130
2016,90.130
2017,90.286
2018,90.286
2019,90.182
2020,90.286
2021,90.234
2022,90.286
2023,90.338
2024,90.286
2025,90.286
2026,90.338
2027,90.338
2028,90.182
2029,90.234
2030,90.286
2031,90.286
2032,90.234
2033,90.234
2034,90.286
2035,90.286
2036,90.286
2037,90.234
2038,90.338
2039,90.286
2040,90.286
2041,90.182
2042,90.286
2043,90.286
2044,90.286
2045,90.286
2046,90.286
2047,90.286
2048,90.286
2049,90.286
2050,90.182
2051,90.286
2052,90.286
2053,90.234
2054,90.130
2055,90.286
2056,90.286
2057,90.182
2058,90.130
2059,90.234
2060,90.286
2061,90.182
2062,90.078
2063,90.234
2064,90.286
2065,90.182
2066,90.182
2067,90.286
2068,90.390
2069,90.286
2070,90.286
2071,90.286
2072,90.286
2073,90.286
2074,90.234
2075,90.234
2076,90.286
2077,90.338
2078,90.182
2079,90.286
2080,90.286
2081,90.338
2082,90.234
2083,90.286
2084,90.286
2085,90.286
2086,90.182
2087,90.182
2088,90.338
2089,90.286
2090,90.286
2091,90.286
2092,90.286
2093,90.234
2094,90.286
2095,90.234
2096,90.286
2097,90.234
2098,90.286
2099,90.286
2100,90.182
2101,90.234
2102,90.286
2103,90.286
2104,90.130
2105,90.286
2106,90.286
2107,90.234
2108,90.234
2109,90.286
2110,90.286
2111,90.286
2112,90.130
2113,90.286
2114,90.390
2115,90.338
2116,90.286
2117,90.286
2118,90.338
2119,90.286
2120,90.234
2121,90.182
2122,90.286
2123,90.286
2124,90.234
2125,90.182
2126,90.286
2127,90.390
2128,90.182
2129,90.286
2130,90.286
2131,90.286
2132,90.286
2133,90.286
2134,90.286
2135,90.286
2136,90.286
2137,90.182
2138,90.286
2139,90.286
2140,90.286
2141,90.286
2142,90.286
2143,90.234
2144,90.286
2145,90.234
2146,90.234
2147,90.182
2148,90.234
2149,90.182
2150,90.130
2151,90.234
2152,90.286
2153,90.286
2154,90.182
2155,90.286
2156,90.286
2157,90.286
2158,90.182
2159,90.338
2160,90.286
2161,90.286
2162,90.286
2163,90.338
2164,90.338
2165,90.286
2166,90.286
2167,90.286
2168,90.286
2169,90.338
2170,90.234
2171,90.130
2172,90.286
2173,90.338
2174,90.234
2175,90.130
2176,90.338
2177,90.286
2178,90.182
2179,90.286
2180,90.286
2181,90.286
2182,90.234
2183,90.182
2184,90.338
2185,90.286
2186,90.234
2187,90.286
2188,90.338
2189,90.286
2190,90.182
2191,90.286
2192,90.286
2193,90.234
2194,90.286
2195,90.182
2196,90.182
2197,90.234
2198,90.286
2199,90.130
2200,90.130
2201,90.286
2202,90.286
2203,90.234
2204,90.234
2205,90.286
2206,90.286
2207,90.286
2208,90.182
2209,90.390
2210,90.286
2211,90.286
2212,90.234
2213,90.286
2214,90.286
2215,90.286
2216,90.286
2217,90.286
2218,90.286
2219,90.338
2220,90.182
2221,90.182
2222,90.286
2223,90.286
2224,90.182
2225,90.130
2226,90.286
2227,90.338
2228,90.286
2229,90.182
2230,90.390
2231,90.338
2232,90.234
2233,90.182
2234,90.390
2235,90.286
2236,90.182
2237,90.286
2238,90.286
2239,90.286
2240,90.182
2241,90.234
2242,90.234
2243,90.286
2244,90.234
2245,90.130
2246,90.234
2247,90.234
2248,90.286
2249,90.182
2250,90.182
2251,90.234
2252,90.286
2253,90.182
2254,90.078
2255,90.286
2256,90.286
2257,90.234
2258,90.234
2259,90.338
2260,90.286
2261,90.390
2262,90.286
2263,90.390
2264,90.234
2265,90.286
2266,90.286
2267,90.182
2268,90.234
2269,90.286
2270,90.182
2271,90.182
2272,90.286
2273,90.338
2274,90.286
2275,90.182
2276,90.338
2277,90.338
2278,90.286
2279,90.078
2280,90.338
2281,90.286
2282,90.130
2283,90.286
2284,90.286
2285,90.286
2286,90.182
2287,90.234
2288,90.286
2289,90.234
2290,90.182
2291,90.234
2292,90.182
2293,90.234
2294,90.182
2295,90.234
2296,90.182
2297,90.234
2298,90.286
2299,90.130
2300,90.234
2301,90.234
2302,90.338
2303,90.182
2304,90.130
2305,90.286
2306,90.286
2307,90.234
2308,90.286
2309,90.286
2310,90.182
2311,90.234
2312,90.234
2313,90.234
2314,90.130
2315,90.286
2316,90.286
2317,90.234
2318,90.234
2319,90.390
2320,90.286
2321,90.182
2322,90.286
2323,90.286
2324,90.234
2325,90.078
2326,90.286
2327,90.286
2328,90.234
2329,90.078
2330,90.286
2331,90.286
2332,90.182
2333,90.234
2334,90.234
2335,90.286
2336,90.130
2337,90.234
2338,90.234
2339,90.234
2340,90.130
2341,90.182
2342,90.182
2343,90.234
2344,90.234
2345,90.182
2346,90.234
2347,90.286
2348,90.338
2349,90.286
2350,90.182
2351,90.286
2352,90.286
2353,90.182
2354,90.286
2355,90.286
2356,90.234
2357,90.130
2358,90.234
2359,90.286
2360,90.286
2361,90.286
2362,90.234
2363,90.234
2364,90.234
2365,90.338
2366,90.286
2367,90.286
2368,90.234
2369,90.390
2370,90.286
2371,90.182
2372,90.286
2373,90.390
2374,90.286
2375,90.078
2376,90.286
2377,90.286
2378,90.234
2379,90.182
2380,90.286
2381,90.234
2382,90.130
2383,90.078
2384,90.286
2385,90.286
2386,90.182
2387,90.182
2388,90.182
2389,90.286
2390,90.286
2391,90.234
2392,90.234
2393,90.286
2394,90.286
2395,90.286
2396,90.182
2397,90.390
2398,90.338
2399,90.286
2400,90.130
2401,90.286
2402,90.286
2403,90.182
2404,90.286
2405,90.286
2406,90.338
2407,90.182
2408,90.286
2409,90.286
2410,90.286
2411,90.286
2412,90.286
2413,90.234
2414,90.234
2415,90.338
2416,90.286
2417,90.234
2418,90.286
2419,90.390
2420,90.286
2421,90.182
2422,90.286
2423,90.286
2424,90.286
2425,90.130
2426,90.286
2427,90.234
2428,90.182
2429,90.182
2430,90.286
2431,90.234
2432,90.182
2433,90.130
2434,90.286
2435,90.286
2436,90.286
2437,90.182
2438,90.234
2439,90.338
2440,90.286
2441,90.286
2442,90.234
2443,90.390
2444,90.338
2445,90.286
2446,90.078
2447,90.338
2448,90.286
2449,90.286
2450,90.286
2451,90.286
2452,90.286
2453,90.130
2454,90.286
2455,90.286
2456,90.286
2457,90.182
2458,90.286
2459,90.286
2460,90.234
2461,90.130
2462,90.286
2463,90.286
2464,90.286
2465,90.286
2466,90.286
2467,90.286
2468,90.286
2469,90.338
2470,90.234
2471,90.078
2472,90.130
2473,90.286
2474,90.234
2475,90.182
2476,90.234
2477,90.182
2478,90.234
2479,90.182
2480,90.234
2481,90.234
2482,90.182
2483,90.182
2484,90.234
2485,90.182
2486,90.182
2487,90.130
2488,90.234
2489,90.286
2490,90.286
2491,90.234
2492,90.130
2493,90.338
2494,90.286
2495,90.286
2496,90.078
2497,90.338
2498,90.338
2499,90.286
2500,90.182
2501,90.286
2502,90.286
2503,90.234
2504,90.286
2505,90.234
2506,90.286
2507,90.234
2508,90.286
2509,90.286
2510,90.286
2511,90.234
2512,90.286
2513,90.234
2514,90.286
2515,90.286
2516,90.234
2517,90.078
2518,90.286
2519,90.286
2520,90.234
2521,90.130
2522,90.130
2523,90.338
2524,90.182
2525,90.182
2526,90.234
2527,90.286
2528,90.182
2529,90.130
2530,90.234
2531,90.234
2532,90.234
2533,90.078
2534,90.182
2535,90.182
2536,90.234
2537,90.130
2538,90.130
2539,90.234
2540,90.286
2541,90.182
2542,90.078
2543,90.286
2544,90.338
2545,90.286
2546,90.182
2547,90.286
2548,90.286
2549,90.182
2550,90.182
2551,90.286
2552,90.286
2553,90.130
2554,90.234
2555,90.286
2556,90.286
2557,90.182
2558,90.286
2559,90.286
2560,90.286
2561,90.286
2562,90.286
2563,90.182
2564,90.338
2565,90.286
2566,90.286
2567,90.078
2568,90.234
2569,90.338
2570,90.286
2571,90.234
2572,90.286
2573,90.338
2574,90.234
2575,90.234
2576,90.182
2577,90.234
2578,90.182
2579,90.234
2580,90.234
2581,90.286
2582,90.234
2583,90.182
2584,90.182
2585,90.182
2586,90.286
2587,90.234
2588,90.078
2589,90.286
2590,90.338
2591,90.286
2592,90.130
2593,90.338
2594,90.338
2595,90.286
2596,90.234
2597,90.286
2598,90.338
2599,90.286
2600,90.234
2601,90.286
2602,90.286
2603,90.234
2604,90.182
2605,90.338
2606,90.234
2607,90.234
2608,90.286
2609,90.286
2610,90.286
2611,90.234
2612,90.286
2613,90.130
2614,90.338
2615,90.286
2616,90.286
2617,90.286
2618,90.286
2619,90.286
2620,90.286
2621,90.234
2622,90.286
2623,90.286
2624,90.130
2625,90.234
2626,90.182
2627,90.234
2628,90.182
2629,90.234
2630,90.182
2631,90.182
2632,90.286
2633,90.182
2634,90.234
2635,90.286
2636,90.338
2637,90.286
2638,90.182
2639,90.286
2640,90.390
2641,90.286
2642,90.234
2643,90.286
2644,90.390
2645,90.234
2646,90.234
2647,90.338
2648,90.286
2649,90.234
2650,90.182
2651,90.286
2652,90.286
2653,90.286
2654,90.182
2655,90.286
2656,90.286
2657,90.286
2658,90.234
2659,90.286
2660,90.286
2661,90.286
2662,90.286
2663,90.078
2664,90.286
2665,90.286
2666,90.234
2667,90.182
2668,90.286
2669,90.182
2670,90.182
2671,90.182
2672,90.286
2673,90.234
2674,90.182
2675,90.286
2676,90.234
2677,90.286
2678,90.234
2679,90.286
2680,90.234
2681,90.286
2682,90.286
2683,90.286
2684,90.130
2685,90.286
2686,90.390
2687,90.286
2688,90.130
2689,90.234
2690,90.390
2691,90.234
2692,90.182
2693,90.182
2694,90.286
2695,90.182
2696,90.234
2697,90.286
2698,90.286
2699,90.286
2700,90.234
2701,90.338
2702,90.338
2703,90.286
2704,90.286
2705,90.286
2706,90.286
2707,90.286
2708,90.182
2709,90.130
2710,90.286
2711,90.286
2712,90.182
2713,90.130
2714,90.286
2715,90.234
2716,90.182
2717,90.130
2718,90.234
2719,90.182
2720,90.130
2721,90.182
2722,90.286
2723,90.286
2724,90.182
2725,90.234
2726,90.286
2727,90.286
2728,90.286
2729,90.338
2730,90.286
2731,90.286
2732,90.286
2733,90.286
2734,90.078
2735,90.286
2736,90.286
2737,90.286
2738,90.234
2739,90.286
2740,90.390
2741,90.234
2742,90.286
2743,90.286
2744,90.390
2745,90.286
2746,90.234
2747,90.286
2748,90.286
2749,90.286
2750,90.286
2751,90.286
2752,90.286
2753,90.234
2754,90.182
2755,90.130
2756,90.182
2757,90.286
2758,90.182
2759,90.078
2760,90.286
2761,90.286
2762,90.182
2763,90.130
2764,90.286
2765,90.234
2766,90.234
2767,90.182
2768,90.286
2769,90.286
2770,90.234
2771,90.286
2772,90.338
2773,90.286
2774,90.234
2775,90.286
2776,90.338
2777,90.286
2778,90.286
2779,90.286
2780,90.130
2781,90.286
2782,90.234
2783,90.286
2784,90.078
2785,90.234
2786,90.286
2787,90.286
2788,90.182
2789,90.286
2790,90.390
2791,90.286
2792,90.286
2793,90.286
2794,90.286
2795,90.286
2796,90.286
2797,90.286
2798,90.286
2799,90.234
2800,90.234
2801,90.234
2802,90.286
2803,90.234
2804,90.182
2805,90.130
2806,90.234
2807,90.286
2808,90.130
2809,90.182
2810,90.234
2811,90.286
2812,90.130
2813,90.130
2814,90.286
2815,90.286
2816,90.234
2817,90.182
2818,90.286
2819,90.286
2820,90.286
2821,90.234
2822,90.390
2823,90.286
2824,90.286
2825,90.286
2826,90.286
2827,90.234
2828,90.130
2829,90.286
2830,90.130
2831,90.234
2832,90.234
2833,90.286
2834,90.234
2835,90.286
2836,90.286
2837,90.286
2838,90.286
2839,90.234
2840,90.338
2841,90.286
2842,90.286
2843,90.234
2844,90.338
2845,90.234
2846,90.286
2847,90.234
2848,90.390
2849,90.234
2850,90.234
2851,90.182
2852,90.338
2853,90.286
2854,90.182
2855,90.078
2856,90.234
2857,90.286
2858,90.130
2859,90.130
2860,90.234
2861,90.286
2862,90.182
2863,90.234
2864,90.286
2865,90.338
2866,90.286
2867,90.286
2868,90.390
2869,90.286
2870,90.286
2871,90.286
2872,90.286
2873,90.286
2874,90.234
2875,90.234
2876,90.078
2877,90.234
2878,90.234
2879,90.286
2880,90.182
2881,90.286
2882,90.286
2883,90.286
2884,90.234
2885,90.286
2886,90.286
2887,90.286
2888,90.286
2889,90.286
2890,90.286
2891,90.286
2892,90.286
2893,90.286
2894,90.286
2895,90.286
2896,90.286
2897,90.286
2898,90.286
2899,90.286
2900,90.182
2901,90.078
2902,90.234
2903,90.286
2904,90.130
2905,90.078
2906,90.182
2907,90.286
2908,90.234
2909,90.234
2910,90.286
2911,90.338
2912,90.286
2913,90.286
2914,90.338
2915,90.390
2916,90.234
2917,90.286
2918,90.390
2919,90.338
2920,90.182
2921,90.234
2922,90.286
2923,90.286
2924,90.286
2925,90.182
2926,90.130
2927,90.286
2928,90.286
2929,90.286
2930,90.234
2931,90.286
2932,90.286
2933,90.286
2934,90.182
2935,90.286
2936,90.286
2937,90.286
2938,90.286
2939,90.286
2940,90.234
2941,90.234
2942,90.286
2943,90.234
2944,90.234
2945,90.182
2946,90.234
2947,90.078
2948,90.234
2949,90.078
2950,90.182
2951,90.026
2952,90.182
2953,90.234
2954,90.182
2955,90.130
2956,90.286
2957,90.286
2958,90.234
2959,90.182
2960,90.182
2961,90.338
2962,90.234
2963,90.182
2964,90.234
2965,90.286
2966,90.130
2967,90.182
2968,90.234
2969,90.286
2970,90.130
2971,90.078
2972,90.078
2973,90.234
2974,90.182
2975,90.078
2976,90.130
2977,90.182
2978,90.234
2979,90.130
2980,90.130
2981,90.234
2982,90.234
2983,90.182
2984,90.182
2985,90.234
2986,90.182
2987,90.234
2988,90.182
2989,90.234
2990,90.130
2991,90.130
2992,90.182
2993,90.130
2994,90.078
2995,90.078
2996,90.078
2997,90.078
2998,90.182
2999,90.130
3000,90.130
3001,90.078
3002,90.182
3003,90.234
3004,90.234
3005,90.182
3006,90.234
3007,90.286
3008,90.234
3009,90.182
3010,90.182
3011,90.286
3012,90.182
3013,90.234
3014,90.234
3015,90.286
3016,90.182
3017,90.234
3018,90.182
3019,90.286
3020,90.182
3021,90.130
3022,90.078
3023,90.234
3024,90.182
3025,90.078
3026,90.182
3027,90.234
3028,90.234
3029,90.078
3030,90.182
3031,90.182
3032,90.234
3033,90.182
3034,90.130
3035,90.234
3036,90.234
3037,90.182
3038,90.234
3039,90.234
3040,90.182
3041,90.234
3042,90.182
3043,90.130
3044,90.130
3045,90.234
3046,90.182
3047,90.078
3048,90.234
3049,90.182
3050,90.130
3051,90.078
3052,90.286
3053,90.130
3054,90.130
3055,90.026
3056,90.130
3057,90.182
3058,90.130
3059,90.078
3060,90.182
3061,90.234
3062,90.182
3063,90.182
3064,90.234
3065,90.286
3066,90.130
3067,90.234
3068,90.078
3069,90.286
3070,90.182
3071,90.182
3072,90.234
3073,90.286
3074,90.182
3075,90.078
3076,90.182
3077,90.234
3078,90.234
3079,90.078
3080,90.182
3081,90.234
3082,90.286
3083,90.078
3084,90.182
3085,90.286
3086,90.182
3087,90.182
3088,90.130
3089,90.234
3090,90.130
3091,90.078
3092,90.078
3093,90.078
3094,90.078
3095,90.130
3096,90.078
3097,90.130
3098,90.078
3099,90.234
3100,90.234
3101,90.234
3102,90.234
3103,90.182
3104,90.234
3105,90.130
3106,90.130
3107,90.182
3108,90.182
3109,90.130
3110,90.182
3111,90.182
3112,90.130
3113,90.130
3114,90.078
3115,90.182
3116,90.078
3117,90.130
3118,89.974
3119,90.182
3120,90.078
3121,90.078
3122,90.078
3123,90.182
3124,90.234
3125,90.078
3126,90.078
3127,90.130
3128,90.130
3129,89.974
3130,90.026
3131,90.078
3132,90.078
3133,89.974
3134,90.026
3135,90.078
3136,90.078
3137,89.974
3138,90.078
3139,90.078
3140,90.130
3141,90.078
3142,90.078
3143,90.078
3144,90.130
3145,90.130
3146,90.078
3147,90.130
3148,90.130
3149,90.130
3150,90.130
3151,90.078
3152,90.130
3153,90.078
3154,90.078
3155,90.078
3156,90.078
3157,90.078
3158,90.078
3159,90.078
3160,90.078
3161,90.078
3162,90.026
3163,90.078
3164,90.026
3165,90.078
3166,90.078
3167,90.078
3168,90.078
3169,90.130
3170,90.130
3171,90.078
3172,89.974
3173,90.130
3174,90.130
3175,90.026
3176,90.026
3177,90.026
3178,90.078
3179,89.974
3180,90.026
3181,90.026
3182,90.130
3183,89.974
3184,90.078
3185,90.078
3186,90.130
3187,90.026
3188,90.078
3189,90.078
3190,90.130
3191,90.078
3192,90.078
3193,90.130
3194,90.078
3195,90.130
3196,90.078
3197,90.078
3198,90.130
3199,90.130
3200,90.078
3201,90.078
3202,90.078
3203,90.130
3204,90.078
3205,90.078
3206,90.078
3207,90.078
3208,90.078
3209,90.026
3210,90.026
3211,90.078
3212,90.078
3213,90.078
3214,89.974
3215,90.130
3216,90.078
3217,90.078
3218,90.026
3219,90.130
3220,90.078
3221,90.078
3222,89.974
3223,90.078
3224,90.130
3225,90.078
3226,89.922
3227,90.078
3228,90.078
3229,89.974
3230,90.026
3231,90.078
3232,90.078
3233,89.974
3234,90.078
3235,89.922
3236,90.078
3237,89.974
3238,90.078
3239,90.078
3240,90.078
3241,90.130
3242,90.130
3243,90.130
3244,90.182
3245,90.130
3246,90.078
3247,90.130
3248,90.130
3249,90.182
3250,90.026
3251,90.078
3252,90.078
3253,90.078
3254,90.078
3255,90.078
3256,90.078
3257,90.078
3258,90.078
3259,90.078
3260,90.026
3261,90.078
3262,90.078
3263,90.130
3264,90.130
3265,90.078
3266,90.078
3267,90.078
3268,90.026
3269,90.078
3270,90.078
3271,90.078
3272,89.974
3273,90.078
3274,90.078
3275,90.078
3276,89.974
3277,90.078
3278,90.130
3279,89.974
3280,89.974
3281,89.974
3282,90.078
3283,89.870
3284,89.974
3285,89.870
3286,90.078
3287,89.974
3288,90.078
3289,90.026
3290,90.078
3291,89.974
3292,90.026
3293,90.078
3294,90.078
3295,90.078
3296,90.026
3297,89.974
3298,90.078
3299,90.078
3300,89.922
3301,90.026
3302,90.026
3303,90.026
3304,89.922
3305,90.026
3306,89.974
3307,90.026
3308,89.974
3309,90.026
3310,89.974
3311,89.974
3312,90.078
3313,90.026
3314,90.026
3315,89.974
3316,90.026
3317,89.974
3318,89.870
3319,89.974
3320,89.974
3321,89.922
3322,89.870
3323,90.026
3324,89.974
3325,89.922
3326,89.870
3327,89.974
3328,90.026
3329,89.974
3330,89.870
3331,89.870
3332,90.078
3333,89.922
3334,89.974
3335,90.078
3336,90.078
3337,90.026
3338,90.078
3339,90.026
3340,90.078
3341,90.026
3342,89.974
3343,89.974
3344,90.078
3345,90.026
3346,89.922
3347,89.974
3348,89.974
3349,90.078
3350,89.922
3351,89.974
3352,90.026
3353,90.078
3354,89.974
3355,90.078
3356,89.974
3357,90.026
3358,90.026
3359,90.078
3360,90.078
3361,89.974
3362,90.026
3363,90.026
3364,90.078
3365,89.974
3366,90.026
3367,89.974
3368,89.870
3369,89.870
3370,90.078
3371,89.922
3372,89.870
3373,89.974
3374,89.974
3375,89.922
3376,89.870
3377,89.870
3378,89.974
3379,89.870
3380,89.974
3381,89.922
3382,90.078
3383,89.922
3384,90.078
3385,90.026
3386,90.078
3387,89.922
3388,89.922
3389,89.870
3390,90.026
3391,89.974
3392,89.922
3393,89.870
3394,90.078
3395,90.078
3396,89.922
3397,89.974
3398,90.078
3399,90.078
3400,89.974
3401,90.026
3402,89.974
3403,90.078
3404,89.974
3405,90.078
3406,89.974
3407,90.026
3408,89.974
3409,90.078
3410,89.974
3411,89.974
3412,90.026
3413,89.974
3414,89.922
3415,89.922
3416,90.078
3417,89.922
3418,89.974
3419,89.922
3420,89.974
3421,89.922
3422,89.870
3423,89.922
3424,89.974
3425,89.974
3426,89.974
3427,89.922
3428,90.026
3429,90.026
3430,89.974
3431,90.078
3432,90.078
3433,89.974
3434,89.974
3435,89.974
3436,90.026
3437,90.026
3438,89.974
3439,89.870
3440,90.078
3441,90.078
3442,89.870
3443,89.870
3444,90.078
3445,90.078
3446,89.974
3447,89.922
3448,89.974
3449,90.026
3450,89.870
3451,89.922
3452,89.922
3453,90.026
3454,89.870
3455,89.974
3456,89.974
3457,89.974
3458,89.818
3459,89.922
3460,89.974
3461,89.870
3462,89.870
3463,89.870
3464,89.870
3465,89.870
3466,89.922
3467,89.818
3468,89.818
3469,89.818
3470,89.870
3471,89.766
3472,89.818
3473,89.766
3474,89.870
3475,89.922
3476,89.974
3477,89.818
3478,89.922
3479,89.922
3480,89.974
3481,89.974
3482,89.870
3483,89.922
3484,89.922
3485,89.922
3486,89.922
3487,89.870
3488,89.818
3489,89.818
3490,89.974
3491,89.870
3492,89.818
3493,89.714
3494,89.922
3495,89.922
3496,89.870
3497,89.870
3498,89.870
3499,89.974
3500,89.870
3501,89.870
3502,89.870
3503,89.974
3504,89.818
3505,89.922
3506,89.922
3507,89.870
3508,89.766
3509,89.870
3510,89.870
3511,89.870
3512,89.870
3513,89.870
3514,89.870
3515,89.870
3516,89.922
3517,89.766
3518,89.870
3519,89.870
3520,89.974
3521,89.870
3522,89.870
3523,89.818
3524,89.974
3525,89.870
3526,89.870
3527,89.974
3528,89.870
3529,89.974
3530,89.922
3531,89.974
3532,89.870
3533,89.922
3534,89.870
3535,89.974
3536,89.870
3537,89.922
3538,89.818
3539,89.870
3540,89.974
3541,90.026
3542,89.870
3543,89.818
3544,89.922
3545,89.974
3546,89.870
3547,89.870
3548,89.818
3549,89.974
3550,89.870
3551,89.870
3552,89.974
3553,89.922
3554,89.818
3555,89.922
3556,89.922
3557,89.922
3558,89.818
3559,89.922
3560,89.870
3561,89.870
3562,89.818
3563,89.870
3564,89.870
3565,89.818
3566,89.870
3567,89.870
3568,89.870
3569,89.818
3570,89.922
3571,89.818
3572,89.922
3573,89.766
3574,90.026
3575,89.870
3576,89.974
3577,89.922
3578,89.922
3579,89.922
3580,89.922
3581,89.922
3582,89.870
3583,89.922
3584,89.870
3585,89.870
3586,89.870
3587,89.974
3588,89.870
3589,89.870
3590,89.922
3591,89.974
3592,89.870
3593,89.818
3594,89.870
3595,89.974
3596,89.870
3597,89.766
3598,89.922
3599,89.922
3600,89.870
3601,89.870
3602,89.922
3603,89.922
3604,89.870
3605,89.922
3606,89.870
3607,89.870
3608,89.870
3609,89.870
3610,89.818
3611,89.818
3612,89.818
3613,89.870
3614,89.766
3615,89.818
3616,89.870
3617,89.766
3618,89.818
3619,89.766
3620,89.870
3621,89.766
3622,89.870
3623,89.870
3624,89.870
3625,89.766
3626,89.818
3627,89.870
3628,89.818
3629,89.766
3630,89.870
3631,89.818
3632,89.714
3633,89.870
3634,89.818
3635,89.766
3636,89.818
3637,89.870
3638,89.870
3639,89.818
3640,89.818
3641,89.974
3642,89.818
3643,89.766
3644,89.766
3645,89.922
3646,89.818
3647,89.766
3648,89.870
3649,89.870
3650,89.818
3651,89.766
3652,89.870
3653,89.818
3654,89.818
3655,89.714
3656,89.766
3657,89.766
3658,89.766
3659,89.766
3660,89.714
3661,89.870
3662,89.818
3663,89.766
3664,89.766
3665,89.870
3666,89.870
3667,89.818
3668,89.818
3669,89.818
3670,89.870
3671,89.766
3672,89.870
3673,89.870
3674,89.870
3675,89.714
3676,89.818
3677,89.818
3678,89.766
3679,89.818
3680,89.870
3681,89.818
3682,89.818
3683,89.870
3684,89.870
3685,89.818
3686,89.818
3687,89.922
3688,89.818
3689,89.818
3690,89.662
3691,89.974
3692,89.870
3693,89.766
3694,89.818
3695,89.870
3696,89.818
3697,89.818
3698,89.974
3699,89.870
3700,89.818
3701,89.714
3702,89.870
3703,89.766
3704,89.766
3705,89.714
3706,89.818
3707,89.818
3708,89.818
3709,89.714
3710,89.766
3711,89.870
3712,89.870
3713,89.870
3714,89.766
3715,89.818
3716,89.922
3717,89.818
3718,89.818
3719,89.870
3720,89.870
3721,89.714
3722,89.870
3723,89.870
3724,89.870
3725,89.714
3726,89.870
3727,89.870
3728,89.766
3729,89.714
3730,89.818
3731,89.818
3732,89.766
3733,89.870
3734,89.818
3735,89.766
3736,89.818
3737,89.922
3738,89.818
3739,89.818
3740,89.662
3741,89.870
3742,89.818
3743,89.766
3744,89.818
3745,89.870
3746,89.818
3747,89.714
3748,89.818
3749,89.766
3750,89.714
3751,89.714
3752,89.818
3753,89.766
3754,89.818
3755,89.714
3756,89.766
3757,89.818
3758,89.870
3759,89.818
3760,89.766
3761,89.818
3762,89.922
3763,89.870
3764,89.714
3765,89.870
3766,89.922
3767,89.870
3768,89.766
3769,89.870
3770,89.818
3771,89.714
3772,89.818
3773,89.870
3774,89.870
3775,89.662
3776,89.870
3777,89.870
3778,89.766
3779,89.662
3780,89.818
3781,89.818
3782,89.818
3783,89.818
3784,89.870
3785,89.818
3786,89.714
3787,89.870
3788,89.766
3789,89.766
3790,89.714
3791,89.870
3792,89.714
3793,89.766
3794,89.714
3795,89.766
3796,89.714
3797,89.766
3798,89.818
3799,89.766
3800,89.714
3801,89.766
3802,89.870
3803,89.766
3804,89.870
3805,89.766
3806,89.818
3807,89.766
3808,89.922
3809,89.818
3810,89.818
3811,89.818
3812,89.922
3813,89.818
3814,89.766
3815,89.870
3816,89.870
3817,89.766
3818,89.662
3819,89.870
3820,89.818
3821,89.766
3822,89.714
3823,89.870
3824,89.818
3825,89.766
3826,89.818
3827,89.818
3828,89.818
3829,89.818
3830,89.818
3831,89.818
3832,89.818
3833,89.818
3834,89.766
3835,89.714
3836,89.662
3837,89.766
3838,89.766
3839,89.766
3840,89.714
3841,89.818
3842,89.766
3843,89.818
3844,89.766
3845,89.818
3846,89.714
3847,89.714
3848,89.714
3849,89.818
3850,89.714
3851,89.818
3852,89.766
3853,89.766
3854,89.870
3855,89.714
3856,89.766
3857,89.714
3858,89.870
3859,89.818
3860,89.818
3861,89.818
3862,89.974
3863,89.818
3864,89.766
3865,89.870
3866,89.922
3867,89.766
3868,89.714
3869,89.870
3870,89.818
3871,89.766
3872,89.662
3873,89.870
3874,89.818
3875,89.766
3876,89.870
3877,89.870
3878,89.870
3879,89.818
3880,89.870
3881,89.818
3882,89.766
3883,89.818
3884,89.818
3885,89.714
3886,89.870
3887,89.818
3888,89.766
3889,89.714
3890,89.766
3891,89.818
3892,89.766
3893,89.766
3894,89.766
3895,89.766
3896,89.662
3897,89.714
3898,89.766
3899,89.766
3900,89.766
3901,89.766
3902,89.818
3903,89.870
3904,89.870
3905,89.818
3906,89.818
3907,89.714
3908,89.974
3909,89.766
3910,89.766
3911,89.818
3912,89.922
3913,89.766
3914,89.714
3915,89.818
3916,89.870
3917,89.766
3918,89.766
3919,89.922
3920,89.922
3921,89.818
3922,89.818
3923,89.922
3924,89.870
3925,89.818
3926,89.766
3927,89.818
3928,89.766
3929,89.818
3930,89.818
3931,89.766
3932,89.766
3933,89.870
3934,89.818
3935,89.714
3936,89.818
3937,89.818
3938,89.766
3939,89.766
3940,89.818
3941,89.766
3942,89.714
3943,89.766
3944,89.766
3945,89.818
3946,89.766
3947,89.818
3948,89.714
3949,89.766
3950,89.662
3951,89.766
3952,89.662
3953,89.610
3954,89.766
3955,89.662
3956,89.610
3957,89.662
3958,89.714
3959,89.662
3960,89.558
3961,89.610
3962,89.714
3963,89.662
3964,89.610
3965,89.662
3966,89.662
3967,89.610
3968,89.610
3969,89.766
3970,89.662
3971,89.610
3972,89.558
3973,89.766
3974,89.714
3975,89.662
3976,89.558
3977,89.662
3978,89.506
3979,89.662
3980,89.662
3981,89.558
3982,89.714
3983,89.662
3984,89.610
3985,89.506
3986,89.610
3987,89.610
3988,89.558
3989,89.558
3990,89.662
3991,89.610
3992,89.610
3993,89.662
3994,89.714
3995,89.662
3996,89.610
3997,89.662
3998,89.662
3999,89.610
4000,89.662
4001,89.662
4002,89.610
4003,89.455
4004,89.662
4005,89.662
4006,89.558
4007,89.610
4008,89.714
4009,89.610
4010,89.662
4011,89.558
4012,89.766
4013,89.662
4014,89.662
4015,89.610
4016,89.766
4017,89.610
4018,89.662
4019,89.662
4020,89.662
4021,89.662
4022,89.610
4023,89.714
4024,89.558
4025,89.662
4026,89.558
4027,89.662
4028,89.506
4029,89.662
4030,89.558
4031,89.558
4032,89.662
4033,89.610
4034,89.610
4035,89.558
4036,89.662
4037,89.662
4038,89.662
4039,89.610
4040,89.714
4041,89.662
4042,89.610
4043,89.714
4044,89.714
4045,89.714
4046,89.558
4047,89.662
4048,89.662
4049,89.558
4050,89.662
4051,89.662
4052,89.558
4053,89.610
4054,89.662
4055,89.610
4056,89.506
4057,89.610
4058,89.714
4059,89.662
4060,89.558
4061,89.662
4062,89.766
4063,89.662
4064,89.662
4065,89.610
4066,89.662
4067,89.662
4068,89.662
4069,89.662
4070,89.662
4071,89.558
4072,89.558
4073,89.610
4074,89.455
4075,89.662
4076,89.506
4077,89.558
4078,89.610
4079,89.662
4080,89.506
4081,89.506
4082,89.610
4083,89.662
4084,89.662
4085,89.506
4086,89.662
4087,89.662
4088,89.662
4089,89.610
4090,89.714
4091,89.662
4092,89.662
4093,89.662
4094,89.714
4095,89.662
4096,89.662
4097,89.662
4098,89.662
4099,89.558
4100,89.610
4101,89.662
4102,89.610
4103,89.662
4104,89.662
4105,89.662
4106,89.506
4107,89.662
4108,89.662
4109,89.662
4110,89.610
4111,89.610
4112,89.714
4113,89.662
4114,89.662
4115,89.610
4116,89.662
4117,89.558
4118,89.558
4119,89.455
4120,89.455
4121,89.506
4122,89.455
4123,89.455
4124,89.455
4125,89.506
4126,89.455
4127,89.455
4128,89.455
4129,89.558
4130,89.455
4131,89.455
4132,89.455
4133,89.558
4134,89.455
4135,89.455
4136,89.558
4137,89.558
4138,89.455
4139,89.506
4140,89.610
4141,89.558
4142,89.506
4143,89.558
4144,89.610
4145,89.403
4146,89.506
4147,89.506
4148,89.506
4149,89.506
4150,89.558
4151,89.558
4152,89.506
4153,89.558
4154,89.558
4155,89.610
4156,89.506
4157,89.558
4158,89.558
4159,89.558
4160,89.558
4161,89.558
4162,89.610
4163,89.558
4164,89.558
4165,89.506
4166,89.558
4167,89.455
4168,89.455
4169,89.455
4170,89.455
4171,89.558
4172,89.455
4173,89.455
4174,89.506
4175,89.558
4176,89.455
4177,89.403
4178,89.455
4179,89.610
4180,89.455
4181,89.455
4182,89.455
4183,89.610
4184,89.455
4185,89.506
4186,89.558
4187,89.610
4188,89.506
4189,89.506
4190,89.610
4191,89.506
4192,89.506
4193,89.455
4194,89.558
4195,89.403
4196,89.455
4197,89.455
4198,89.506
4199,89.610
4200,89.558
4201,89.506
4202,89.506
4203,89.506
4204,89.558
4205,89.610
4206,89.506
4207,89.558
4208,89.506
4209,89.558
4210,89.506
4211,89.506
4212,89.506
4213,89.455
4214,89.455
4215,89.455
4216,89.455
4217,89.455
4218,89.455
4219,89.455
4220,89.455
4221,89.455
4222,89.455
4223,89.455
4224,89.455
4225,89.558
4226,89.455
4227,89.506
4228,89.506
4229,89.662
4230,89.506
4231,89.506
4232,89.455
4233,89.558
4234,89.506
4235,89.455
4236,89.558
4237,89.558
4238,89.455
4239,89.506
4240,89.610
4241,89.455
4242,89.455
4243,89.455
4244,89.558
4245,89.558
4246,89.506
4247,89.455
4248,89.506
4249,89.506
4250,89.506
4251,89.455
4252,89.506
4253,89.610
4254,89.558
4255,89.558
4256,89.455
4257,89.558
4258,89.506
4259,89.455
4260,89.455
4261,89.558
4262,89.403
4263,89.455
4264,89.506
4265,89.455
4266,89.403
4267,89.455
4268,89.506
4269,89.455
4270,89.506
4271,89.455
4272,89.506
4273,89.403
4274,89.506
4275,89.558
4276,89.506
4277,89.455
4278,89.558
4279,89.662
4280,89.558
4281,89.455
4282,89.455
4283,89.662
4284,89.506
4285,89.558
4286,89.610
4287,89.558
4288,89.455
4289,89.455
4290,89.558
4291,89.455
4292,89.455
4293,89.455
4294,89.506
4295,89.558
4296,89.455
4297,89.455
4298,89.506
4299,89.610
4300,89.610
4301,89.455
4302,89.506
4303,89.506
4304,89.610
4305,89.455
4306,89.455
4307,89.558
4308,89.455
4309,89.506
4310,89.506
4311,89.506
4312,89.351
4313,89.455
4314,89.455
4315,89.455
4316,89.455
4317,89.455
4318,89.455
4319,89.455
4320,89.455
4321,89.455
4322,89.506
4323,89.403
4324,89.558
4325,89.558
4326,89.506
4327,89.455
4328,89.558
4329,89.558
4330,89.558
4331,89.455
4332,89.506
4333,89.558
4334,89.506
4335,89.506
4336,89.506
4337,89.455
4338,89.455
4339,89.506
4340,89.455
4341,89.610
4342,89.506
4343,89.455
4344,89.506
4345,89.558
4346,89.610
4347,89.455
4348,89.558
4349,89.610
4350,89.662
4351,89.455
4352,89.506
4353,89.558
4354,89.610
4355,89.455
4356,89.455
4357,89.506
4358,89.455
4359,89.455
4360,89.455
4361,89.558
4362,89.299
4363,89.558
4364,89.455
4365,89.506
4366,89.455
4367,89.506
4368,89.455
4369,89.455
4370,89.455
4371,89.455
4372,89.506
4373,89.455
4374,89.558
4375,89.610
4376,89.610
4377,89.506
4378,89.558
4379,89.610
4380,89.558
4381,89.455
4382,89.558
4383,89.455
4384,89.506
4385,89.455
4386,89.455
4387,89.506
4388,89.506
4389,89.506
4390,89.455
4391,89.610
4392,89.558
4393,89.506
4394,89.506
4395,89.610
4396,89.662
4397,89.558
4398,89.506
4399,89.558
4400,89.610
4401,89.455
4402,89.506
4403,89.506
4404,89.558
4405,89.403
4406,89.506
4407,89.558
4408,89.403
4409,89.455
4410,89.455
4411,89.506
4412,89.455
4413,89.455
4414,89.455
4415,89.455
4416,89.455
4417,89.506
4418,89.455
4419,89.455
4420,89.455
4421,89.558
4422,89.558
4423,89.506
4424,89.610
4425,89.558
4426,89.610
4427,89.455
4428,89.506
4429,89.455
4430,89.506
4431,89.455
4432,89.506
4433,89.403
4434,89.506
4435,89.455
4436,89.506
4437,89.610
4438,89.506
4439,89.506
4440,89.455
4441,89.558
4442,89.610
4443,89.455
4444,89.455
4445,89.610
4446,89.610
4447,89.455
4448,89.455
4449,89.506
4450,89.558
4451,89.403
4452,89.455
4453,89.455
4454,89.455
4455,89.351
4456,89.455
4457,89.455
4458,89.351
4459,89.299
4460,89.403
4461,89.403
4462,89.403
4463,89.455
4464,89.403
4465,89.455
4466,89.455
4467,89.506
4468,89.455
4469,89.455
4470,89.506
4471,89.610
4472,89.455
4473,89.455
4474,89.455
4475,89.455
4476,89.455
4477,89.403
4478,89.455
4479,89.351
4480,89.455
4481,89.455
4482,89.455
4483,89.351
4484,89.455
4485,89.455
4486,89.403
4487,89.455
4488,89.455
4489,89.455
4490,89.351
4491,89.455
4492,89.558
4493,89.455
4494,89.351
4495,89.506
4496,89.506
4497,89.455
4498,89.403
4499,89.455
4500,89.455
4501,89.403
4502,89.351
4503,89.403
4504,89.299
4505,89.299
4506,89.455
4507,89.455
4508,89.455
4509,89.403
4510,89.403
4511,89.506
4512,89.506
4513,89.558
4514,89.455
4515,89.506
4516,89.506
4517,89.506
4518,89.403
4519,89.455
4520,89.455
4521,89.455
4522,89.403
4523,89.455
4524,89.455
4525,89.403
4526,89.455
4527,89.455
4528,89.455
4529,89.247
4530,89.455
4531,89.403
4532,89.455
4533,89.403
4534,89.455
4535,89.455
4536,89.455
4537,89.455
4538,89.506
4539,89.455
4540,89.403
4541,89.506
4542,89.455
4543,89.455
4544,89.403
4545,89.455
4546,89.506
4547,89.403
4548,89.299
4549,89.455
4550,89.455
4551,89.351
4552,89.403
4553,89.403
4554,89.299
4555,89.403
4556,89.455
4557,89.455
4558,89.455
4559,89.455
4560,89.455
4561,89.455
4562,89.506
4563,89.455
4564,89.455
4565,89.455
4566,89.455
4567,89.506
4568,89.403
4569,89.455
4570,89.455
4571,89.506
4572,89.403
4573,89.455
4574,89.455
4575,89.351
4576,89.455
4577,89.455
4578,89.455
4579,89.455
4580,89.455
4581,89.403
4582,89.455
4583,89.455
4584,89.455
4585,89.455
4586,89.455
4587,89.455
4588,89.506
4589,89.455
4590,89.299
4591,89.455
4592,89.455
4593,89.455
4594,89.247
4595,89.455
4596,89.455
4597,89.403
4598,89.299
4599,89.403
4600,89.299
4601,89.403
4602,89.403
4603,89.455
4604,89.455
4605,89.403
4606,89.455
4607,89.403
4608,89.455
4609,89.403
4610,89.403
4611,89.455
4612,89.455
4613,89.455
4614,89.455
4615,89.455
4616,89.506
4617,89.558
4618,89.455
4619,89.506
4620,89.558
4621,89.558
4622,89.455
4623,89.506
4624,89.558
4625,89.351
4626,89.455
4627,89.558
4628,89.610
4629,89.455
4630,89.610
4631,89.558
4632,89.558
4633,89.455
4634,89.610
4635,89.506
4636,89.455
4637,89.455
4638,89.610
4639,89.455
4640,89.403
4641,89.506
4642,89.506
4643,89.455
4644,89.455
4645,89.506
4646,89.455
4647,89.455
4648,89.403
4649,89.455
4650,89.403
4651,89.455
4652,89.455
4653,89.506
4654,89.558
4655,89.558
4656,89.506
4657,89.506
4658,89.662
4659,89.558
4660,89.558
4661,89.455
4662,89.662
4663,89.610
4664,89.506
4665,89.506
4666,89.610
4667,89.558
4668,89.455
4669,89.558
4670,89.558
4671,89.455
4672,89.455
4673,89.558
4674,89.558
4675,89.610
4676,89.455
4677,89.610
4678,89.610
4679,89.506
4680,89.506
4681,89.558
4682,89.558
4683,89.506
4684,89.558
4685,89.455
4686,89.506
4687,89.455
4688,89.558
4689,89.506
4690,89.455
4691,89.455
4692,89.506
4693,89.455
4694,89.455
4695,89.506
4696,89.403
4697,89.455
4698,89.455
4699,89.506
4700,89.506
4701,89.506
4702,89.558
4703,89.610
4704,89.558
4705,89.558
4706,89.455
4707,89.455
4708,89.610
4709,89.558
4710,89.455
4711,89.455
4712,89.610
4713,89.610
4714,89.455
4715,89.455
4716,89.506
4717,89.610
4718,89.455
4719,89.506
4720,89.610
4721,89.455
4722,89.506
4723,89.610
4724,89.662
4725,89.610
4726,89.455
4727,89.610
4728,89.610
4729,89.558
4730,89.506
4731,89.558
4732,89.506
4733,89.455
4734,89.558
4735,89.455
4736,89.455
4737,89.455
4738,89.506
4739,89.455
4740,89.455
4741,89.455
4742,89.455
4743,89.506
4744,89.506
4745,89.506
4746,89.455
4747,89.610
4748,89.506
4749,89.610
4750,89.506
4751,89.558
4752,89.558
4753,89.506
4754,89.558
4755,89.558
4756,89.506
4757,89.455
4758,89.558
4759,89.558
4760,89.455
4761,89.455
4762,89.610
4763,89.610
4764,89.455
4765,89.455
4766,89.662
4767,89.506
4768,89.506
4769,89.506
4770,89.610
4771,89.558
4772,89.506
4773,89.558
4774,89.610
4775,89.610
4776,89.506
4777,89.558
4778,89.610
4779,89.558
4780,89.455
4781,89.455
4782,89.455
4783,89.455
4784,89.506
4785,89.455
4786,89.403
4787,89.455
4788,89.506
4789,89.403
4790,89.455
4791,89.455
4792,89.455
4793,89.455
4794,89.455
4795,89.455
4796,89.506
4797,89.506
4798,89.455
4799,89.455
4800,89.455
4801,89.455
4802,89.455
4803,89.455
4804,89.403
4805,89.455
4806,89.455
4807,89.455
4808,89.455
4809,89.455
4810,89.455
4811,89.351
4812,89.558
4813,89.455
4814,89.455
4815,89.403
4816,89.506
4817,89.455
4818,89.403
4819,89.403
4820,89.506
4821,89.610
4822,89.403
4823,89.455
4824,89.558
4825,89.506
4826,89.403
4827,89.455
4828,89.455
4829,89.455
4830,89.403
4831,89.455
4832,89.403
4833,89.403
4834,89.455
4835,89.403
4836,89.403
4837,89.506
4838,89.455
4839,89.455
4840,89.455
4841,89.455
4842,89.506
4843,89.455
4844,89.506
4845,89.558
4846,89.506
4847,89.455
4848,89.506
4849,89.506
4850,89.506
4851,89.455
4852,89.506
4853,89.455
4854,89.455
4855,89.558
4856,89.455
4857,89.403
4858,89.455
4859,89.558
4860,89.455
4861,89.403
4862,89.506
4863,89.455
4864,89.455
4865,89.351
4866,89.558
4867,89.506
4868,89.455
4869,89.403
4870,89.610
4871,89.558
4872,89.455
4873,89.455
4874,89.506
4875,89.455
4876,89.403
4877,89.455
4878,89.455
4879,89.455
4880,89.455
4881,89.455
4882,89.351
4883,89.455
4884,89.455
4885,89.455
4886,89.403
4887,89.455
4888,89.403
4889,89.455
4890,89.455
4891,89.455
4892,89.558
4893,89.455
4894,89.506
4895,89.558
4896,89.455
4897,89.455
4898,89.455
4899,89.558
4900,89.455
4901,89.455
4902,89.455
4903,89.455
4904,89.403
4905,89.558
4906,89.455
4907,89.403
4908,89.455
4909,89.506
4910,89.455
4911,89.455
4912,89.455
4913,89.455
4914,89.455
4915,89.403
4916,89.455
4917,89.558
4918,89.455
4919,89.403
4920,89.506
4921,89.455
4922,89.455
4923,89.403
4924,89.455
4925,89.455
4926,89.455
4927,89.403
4928,89.351
4929,89.506
4930,89.455
4931,89.403
4932,89.403
4933,89.506
4934,89.403
4935,89.455
4936,89.403
4937,89.455
4938,89.506
4939,89.455
4940,89.455
4941,89.455
4942,89.506
4943,89.455
4944,89.506
4945,89.558
4946,89.558
4947,89.403
4948,89.506
4949,89.506
4950,89.506
4951,89.506
4952,89.455
4953,89.506
4954,89.506
4955,89.662
4956,89.558
4957,89.506
4958,89.455
4959,89.558
4960,89.558
4961,89.455
4962,89.506
4963,89.662
4964,89.610
4965,89.455
4966,89.558
4967,89.506
4968,89.506
4969,89.455
4970,89.610
4971,89.455
4972,89.455
4973,89.455
4974,89.506
4975,89.506
4976,89.506
4977,89.403
4978,89.455
4979,89.506
4980,89.558
4981,89.455
4982,89.455
4983,89.558
4984,89.455
4985,89.506
4986,89.455
4987,89.662
4988,89.610
4989,89.455
4990,89.558
4991,89.662
4992,89.662
4993,89.455
4994,89.610
4995,89.610
4996,89.558
4997,89.455
4998,89.610
4999,89.558
5000,89.506
5001,89.455
5002,89.558
5003,89.558
5004,89.506
5005,89.558
5006,89.610
5007,89.455
5008,89.506
5009,89.610
5010,89.506
5011,89.558
5012,89.506
5013,89.662
5014,89.506
5015,89.455
5016,89.506
5017,89.610
5018,89.455
5019,89.455
5020,89.558
5021,89.506
5022,89.455
5023,89.455
5024,89.506
5025,89.455
5026,89.455
5027,89.455
5028,89.455
5029,89.506
5030,89.455
5031,89.558
5032,89.455
5033,89.662
5034,89.662
5035,89.610
5036,89.455
5037,89.662
5038,89.610
5039,89.558
5040,89.455
5041,89.610
5042,89.558
5043,89.455
5044,89.558
5045,89.610
5046,89.558
5047,89.455
5048,89.558
5049,89.610
5050,89.558
5051,89.455
5052,89.610
5053,89.506
5054,89.610
5055,89.455
5056,89.506
5057,89.558
5058,89.558
5059,89.662
5060,89.506
5061,89.455
5062,89.455
5063,89.662
5064,89.558
5065,89.455
5066,89.455
5067,89.506
5068,89.455
5069,89.455
5070,89.506
5071,89.455
5072,89.506
5073,89.506
5074,89.558
5075,89.506
5076,89.558
5077,89.558
5078,89.506
5079,89.610
5080,89.506
5081,89.558
5082,89.455
5083,89.662
5084,89.610
5085,89.558
5086,89.455
5087,89.610
5088,89.662
5089,89.455
5090,89.455
5091,89.610
5092,89.506
5093,89.455
5094,89.506
5095,89.558
5096,89.558
5097,89.455
5098,89.610
5099,89.558
5100,89.558
5101,89.455
5102,89.506
5103,89.506
5104,89.610
5105,89.506
5106,89.455
5107,89.506
5108,89.558
5109,89.610
5110,89.455
5111,89.455
5112,89.455
5113,89.558
5114,89.455
5115,89.455
5116,89.558
5117,89.506
5118,89.506
5119,89.558
5120,89.610
5121,89.610
5122,89.610
5123,89.610
5124,89.610
5125,89.610
5126,89.558
5127,89.506
5128,89.506
5129,89.558
5130,89.662
5131,89.506
5132,89.455
5133,89.610
5134,89.558
5135,89.506
5136,89.455
5137,89.610
5138,89.558
5139,89.455
5140,89.455
5141,89.610
5142,89.610
5143,89.506
5144,89.455
5145,89.558
5146,89.558
5147,89.506
5148,89.558
5149,89.506
5150,89.558
5151,89.403
5152,89.558
5153,89.455
5154,89.558
5155,89.506
5156,89.455
5157,89.455
5158,89.455
5159,89.506
5160,89.455
5161,89.455
5162,89.506
5163,89.506
5164,89.455
5165,89.506
5166,89.506
5167,89.558
5168,89.506
5169,89.506
5170,89.558
5171,89.610
5172,89.558
5173,89.558
5174,89.506
5175,89.558
5176,89.558
5177,89.506
5178,89.455
5179,89.506
5180,89.714
5181,89.506
5182,89.455
5183,89.506
5184,89.662
5185,89.506
5186,89.455
5187,89.558
5188,89.558
5189,89.455
5190,89.455
5191,89.558
5192,89.558
5193,89.455
5194,89.455
5195,89.558
5196,89.610
5197,89.403
5198,89.506
5199,89.506
5200,89.558
5201,89.455
5202,89.455
5203,89.455
5204,89.558
5205,89.558
5206,89.506
5207,89.455
5208,89.455
5209,89.455
5210,89.506
5211,89.455
5212,89.506
5213,89.506
5214,89.455
5215,89.506
5216,89.558
5217,89.610
5218,89.455
5219,89.558
5220,89.506
5221,89.506
5222,89.455
5223,89.610
5224,89.506
5225,89.558
5226,89.662
5227,89.506
5228,89.506
5229,89.455
5230,89.610
5231,89.455
5232,89.455
5233,89.506
5234,89.610
5235,89.610
5236,89.455
5237,89.558
5238,89.662
5239,89.558
5240,89.455
5241,89.610
5242,89.662
5243,89.558
5244,89.506
5245,89.558
5246,89.506
5247,89.455
5248,89.455
5249,89.455
5250,89.558
5251,89.558
5252,89.455
5253,89.455
5254,89.506
5255,89.455
5256,89.558
5257,89.455
5258,89.558
5259,89.506
5260,89.455
5261,89.506
5262,89.558
5263,89.455
5264,89.455
5265,89.506
5266,89.506
5267,89.610
5268,89.455
5269,89.558
5270,89.506
5271,89.610
5272,89.455
5273,89.610
5274,89.455
5275,89.506
5276,89.662
5277,89.506
5278,89.455
5279,89.455
5280,89.662
5281,89.558
5282,89.558
5283,89.506
5284,89.662
5285,89.610
5286,89.558
5287,89.662
5288,89.766
5289,89.662
5290,89.610
5291,89.662
5292,89.662
5293,89.558
5294,89.610
5295,89.662
5296,89.714
5297,89.662
5298,89.610
5299,89.610
5300,89.662
5301,89.662
5302,89.610
5303,89.558
5304,89.662
5305,89.662
5306,89.662
5307,89.506
5308,89.662
5309,89.610
5310,89.558
5311,89.558
5312,89.662
5313,89.662
5314,89.662
5315,89.662
5316,89.662
5317,89.714
5318,89.455
5319,89.662
5320,89.610
5321,89.662
5322,89.610
5323,89.662
5324,89.610
5325,89.662
5326,89.662
5327,89.662
5328,89.558
5329,89.610
5330,89.714
5331,89.610
5332,89.610
5333,89.610
5334,89.662
5335,89.610
5336,89.662
5337,89.662
5338,89.662
5339,89.662
5340,89.662
5341,89.662
5342,89.662
5343,89.610
5344,89.610
5345,89.662
5346,89.662
5347,89.714
5348,89.506
5349,89.610
5350,89.662
5351,89.662
5352,89.455
5353,89.558
5354,89.662
5355,89.662
5356,89.558
5357,89.610
5358,89.714
5359,89.662
5360,89.610
5361,89.662
5362,89.714
5363,89.662
5364,89.558
5365,89.610
5366,89.714
5367,89.662
5368,89.506
5369,89.714
5370,89.662
5371,89.610
5372,89.610
5373,89.662
5374,89.610
5375,89.662
5376,89.662
5377,89.662
5378,89.558
5379,89.662
5380,89.714
5381,89.662
5382,89.610
5383,89.662
5384,89.714
5385,89.662
5386,89.662
5387,89.662
5388,89.766
5389,89.558
5390,89.662
5391,89.610
5392,89.662
5393,89.662
5394,89.558
5395,89.610
5396,89.610
5397,89.662
5398,89.610
5399,89.558
5400,89.662
5401,89.662
5402,89.558
5403,89.506
5404,89.662
5405,89.662
5406,89.610
5407,89.610
5408,89.714
5409,89.662
5410,89.610
5411,89.610
5412,89.662
5413,89.662
5414,89.558
5415,89.662
5416,89.714
5417,89.662
5418,89.662
5419,89.662
5420,89.610
5421,89.662
5422,89.662
5423,89.610
5424,89.610
5425,89.610
5426,89.662
5427,89.610
5428,89.610
5429,89.662
5430,89.662
5431,89.662
5432,89.662
5433,89.662
5434,89.714
5435,89.558
5436,89.662
5437,89.610
5438,89.662
5439,89.506
5440,89.610
5441,89.506
5442,89.662
5443,89.662
5444,89.558
5445,89.558
5446,89.558
5447,89.662
5448,89.558
5449,89.558
5450,89.610
5451,89.662
5452,89.610
5453,89.610
5454,89.662
5455,89.818
5456,89.662
5457,89.714
5458,89.870
5459,89.766
5460,89.662
5461,89.714
5462,89.818
5463,89.766
5464,89.662
5465,89.662
5466,89.714
5467,89.662
5468,89.662
5469,89.662
5470,89.662
5471,89.714
5472,89.714
5473,89.714
5474,89.714
5475,89.766
5476,89.714
5477,89.818
5478,89.714
5479,89.818
5480,89.714
5481,89.766
5482,89.662
5483,89.766
5484,89.818
5485,89.610
5486,89.714
5487,89.662
5488,89.818
5489,89.662
5490,89.714
5491,89.558
5492,89.714
5493,89.662
5494,89.662
5495,89.558
5496,89.662
5497,89.766
5498,89.662
5499,89.610
5500,89.662
5501,89.818
5502,89.766
5503,89.766
5504,89.714
5505,89.870
5506,89.662
5507,89.714
5508,89.766
5509,89.766
5510,89.558
5511,89.662
5512,89.766
5513,89.766
5514,89.714
5515,89.610
5516,89.714
5517,89.662
5518,89.766
5519,89.662
5520,89.714
5521,89.766
5522,89.766
5523,89.766
5524,89.662
5525,89.766
5526,89.714
5527,89.766
5528,89.714
5529,89.818
5530,89.714
5531,89.662
5532,89.714
5533,89.714
5534,89.714
5535,89.610
5536,89.662
5537,89.662
5538,89.714
5539,89.662
5540,89.662
5541,89.662
5542,89.714
5543,89.766
5544,89.714
5545,89.662
5546,89.766
5547,89.870
5548,89.766
5549,89.766
5550,89.766
5551,89.870
5552,89.818
5553,89.766
5554,89.714
5555,89.870
5556,89.610
5557,89.714
5558,89.714
5559,89.766
5560,89.714
5561,89.714
5562,89.714
5563,89.766
5564,89.714
5565,89.662
5566,89.714
5567,89.818
5568,89.766
5569,89.662
5570,89.766
5571,89.818
5572,89.870
5573,89.766
5574,89.714
5575,89.818
5576,89.766
5577,89.714
5578,89.662
5579,89.766
5580,89.662
5581,89.610
5582,89.662
5583,89.714
5584,89.610
5585,89.662
5586,89.714
5587,89.714
5588,89.714
5589,89.766
5590,89.714
5591,89.662
5592,89.766
5593,89.766
5594,89.818
5595,89.662
5596,89.766
5597,89.870
5598,89.870
5599,89.714
5600,89.818
5601,89.870
5602,89.714
5603,89.714
5604,89.714
5605,89.818
5606,89.610
5607,89.714
5608,89.714
5609,89.766
5610,89.714
5611,89.714
5612,89.662
5613,89.766
5614,89.818
5615,89.714
5616,89.818
5617,89.870
5618,89.922
5619,89.766
5620,89.870
5621,89.870
5622,89.870
5623,89.766
5624,89.818
5625,89.870
5626,89.818
5627,89.714
5628,89.818
5629,89.818
5630,89.818
5631,89.662
5632,89.766
5633,89.870
5634,89.714
5635,89.766
5636,89.766
5637,89.818
5638,89.818
5639,89.870
5640,89.818
5641,89.766
5642,89.922
5643,89.922
5644,89.870
5645,89.818
5646,89.870
5647,89.974
5648,89.870
5649,89.870
5650,89.870
5651,89.922
5652,89.766
5653,89.870
5654,89.818
5655,89.922
5656,89.818
5657,89.818
5658,89.818
5659,89.818
5660,89.870
5661,89.870
5662,89.766
5663,89.922
5664,89.922
5665,89.870
5666,89.818
5667,89.922
5668,89.922
5669,89.766
5670,89.870
5671,89.766
5672,89.870
5673,89.766
5674,89.818
5675,89.870
5676,89.870
5677,89.662
5678,89.818
5679,89.870
5680,89.818
5681,89.870
5682,89.766
5683,89.818
5684,89.766
5685,89.870
5686,89.766
5687,89.818
5688,89.818
5689,89.870
5690,89.870
5691,89.818
5692,89.870
5693,89.922
5694,89.870
5695,89.818
5696,89.922
5697,89.870
5698,89.870
5699,89.870
5700,89.870
5701,89.870
5702,89.766
5703,89.818
5704,89.818
5705,89.870
5706,89.766
5707,89.818
5708,89.818
5709,89.922
5710,89.870
5711,89.870
5712,89.818
5713,89.922
5714,89.922
5715,89.766
5716,89.766
5717,89.870
5718,89.922
5719,89.766
5720,89.766
5721,89.766
5722,89.870
5723,89.662
5724,89.818
5725,89.870
5726,89.870
5727,89.662
5728,89.818
5729,89.870
5730,89.818
5731,89.766
5732,89.766
5733,89.818
5734,89.818
5735,89.870
5736,89.766
5737,89.870
5738,89.818
5739,89.870
5740,89.870
5741,89.870
5742,89.870
5743,89.974
5744,89.974
5745,89.870
5746,89.870
5747,89.870
5748,89.714
5749,89.818
5750,89.870
5751,89.766
5752,89.870
5753,89.818
5754,89.870
5755,89.922
5756,89.870
5757,89.870
5758,89.818
5759,89.922
5760,89.870
5761,89.870
5762,89.766
5763,89.922
5764,89.922
5765,89.818
5766,89.818
5767,89.870
5768,89.870
5769,89.818
5770,89.818
5771,89.818
5772,89.870
5773,89.662
5774,89.870
5775,89.818
5776,89.870
5777,89.714
5778,89.766
5779,89.818
5780,89.766
5781,89.766
5782,89.870
5783,89.870
5784,89.922
5785,89.974
5786,89.922
5787,89.974
5788,90.078
5789,90.078
5790,90.026
5791,90.026
5792,90.026
5793,90.078
5794,90.026
5795,90.026
5796,89.974
5797,90.026
5798,89.922
5799,90.078
5800,90.078
5801,90.026
5802,90.130
5803,90.078
5804,90.078
5805,90.078
5806,90.078
5807,90.078
5808,90.026
5809,90.078
5810,90.078
5811,90.078
5812,89.974
5813,90.078
5814,90.130
5815,90.026
5816,89.974
5817,90.078
5818,90.078
5819,89.870
5820,90.026
5821,89.974
5822,90.078
5823,89.870
5824,90.026
5825,89.974
5826,90.078
5827,89.922
5828,90.026
5829,89.974
5830,90.026
5831,89.870
5832,89.922
5833,90.078
5834,90.078
5835,90.078
5836,90.026
5837,90.078
5838,90.078
5839,90.182
5840,89.974
5841,90.026
5842,90.078
5843,90.026
5844,89.922
5845,89.974
5846,90.078
5847,90.026
5848,90.078
5849,90.078
5850,90.078
5851,90.026
5852,90.078
5853,90.078
5854,90.078
5855,90.026
5856,90.078
5857,90.078
5858,90.026
5859,90.078
5860,90.130
5861,90.026
5862,89.974
5863,90.078
5864,90.130
5865,90.078
5866,89.922
5867,90.078
5868,90.026
5869,89.870
5870,89.922
5871,90.078
5872,90.026
5873,89.922
5874,89.922
5875,89.974
5876,90.026
5877,89.870
5878,90.026
5879,89.974
5880,90.026
5881,90.078
5882,90.026
5883,90.078
5884,90.130
5885,90.078
5886,89.974
5887,90.026
5888,90.078
5889,90.078
5890,89.870
5891,90.078
5892,89.974
5893,90.078
5894,89.818
5895,90.026
5896,90.026
5897,90.026
5898,89.974
5899,90.026
5900,90.078
5901,90.026
5902,90.078
5903,90.026
5904,90.078
5905,90.026
5906,90.130
5907,90.078
5908,90.026
5909,90.078
5910,90.078
5911,90.078
5912,89.922
5913,90.078
5914,90.078
5915,89.818
5916,89.922
5917,90.026
5918,89.974
5919,89.922
5920,89.922
5921,90.078
5922,90.026
5923,89.974
5924,90.026
5925,90.078
5926,90.078
5927,90.026
5928,90.078
5929,90.026
5930,90.130
5931,90.078
5932,90.078
5933,89.974
5934,90.078
5935,90.078
5936,90.026
5937,90.026
5938,90.078
5939,90.078
5940,89.870
5941,90.026
5942,90.026
5943,90.026
5944,89.870
5945,90.026
5946,90.026
5947,90.078
5948,89.974
5949,90.078
5950,90.078
5951,90.026
5952,90.078
5953,90.026
5954,90.078
5955,89.922
5956,90.078
5957,90.026
5958,89.974
5959,89.922
5960,90.078
5961,89.974
5962,89.922
5963,89.974
5964,90.078
5965,89.922
5966,89.922
5967,90.026
5968,89.974
5969,90.026
5970,89.974
5971,90.026
5972,90.078
5973,90.026
5974,89.974
5975,90.078
5976,90.078
5977,90.078
5978,90.078
5979,90.026
5980,90.130
5981,90.130
5982,90.026
5983,89.974
5984,90.130
5985,90.078
5986,89.870
5987,89.922
5988,90.026
5989,90.078
5990,89.818
5991,90.026
5992,90.078
5993,90.078
5994,89.922
5995,90.078
5996,90.078
5997,90.026
5998,89.974
5999,90.026
6000,90.026
6001,90.078
6002,89.974
6003,89.974
6004,89.974
6005,89.922
6006,90.026
6007,89.922
6008,89.922
6009,89.974
6010,90.078
6011,89.870
6012,89.922
6013,89.922
6014,90.026
6015,89.974
6016,89.922
6017,89.974
6018,90.078
6019,90.026
6020,89.974
6021,90.078
6022,90.078
6023,90.078
6024,90.078
6025,90.078
6026,90.078
6027,90.078
6028,90.078
6029,89.974
6030,90.078
6031,90.078
6032,89.974
6033,89.870
6034,90.078
6035,90.078
6036,89.870
6037,89.922
6038,90.078
6039,90.078
6040,89.974
6041,90.026
6042,90.078
6043,90.078
6044,89.974
6045,90.078
6046,90.078
6047,90.026
6048,89.870
6049,89.974
6050,90.026
6051,89.974
6052,89.974
6053,89.922
6054,89.922
6055,89.922
6056,90.078
6057,89.870
6058,89.922
6059,90.026
6060,90.026
6061,89.818
6062,89.870
6063,89.974
6064,90.026
6065,89.974
6066,90.026
6067,90.078
6068,90.078
6069,90.078
6070,90.078
6071,90.130
6072,90.078
6073,90.078
6074,90.078
6075,89.974
6076,89.974
6077,90.078
6078,89.922
6079,89.870
6080,90.078
6081,90.078
6082,89.922
6083,89.870
6084,90.078
6085,90.078
6086,89.922
6087,89.974
6088,90.078
6089,90.078
6090,90.026
6091,89.974
6092,90.078
6093,90.078
6094,89.974
6095,90.078
6096,90.078
6097,90.078
6098,89.922
6099,90.026
6100,89.870
6101,89.974
6102,89.870
6103,89.974
6104,89.922
6105,89.922
6106,90.026
6107,89.870
6108,89.922
6109,89.974
6110,90.078
6111,89.974
6112,89.922
6113,89.974
6114,90.078
6115,90.078
6116,90.078
6117,90.130
6118,90.130
6119,90.078
6120,90.130
6121,90.078
6122,90.078
6123,90.130
6124,90.130
6125,90.078
6126,90.078
6127,90.182
6128,90.026
6129,90.026
6130,90.078
6131,90.234
6132,89.922
6133,90.026
6134,90.182
6135,90.182
6136,90.130
6137,90.026
6138,90.182
6139,90.130
6140,90.078
6141,90.078
6142,90.182
6143,90.130
6144,90.078
6145,90.078
6146,90.078
6147,90.078
6148,90.026
6149,90.078
6150,90.026
6151,90.078
6152,90.078
6153,90.078
6154,89.974
6155,90.130
6156,90.130
6157,89.922
6158,90.078
6159,90.130
6160,90.182
6161,90.078
6162,90.130
6163,90.182
6164,90.130
6165,90.026
6166,90.130
6167,90.078
6168,90.078
6169,90.078
6170,90.130
6171,90.078
6172,90.078
6173,90.078
6174,90.078
6175,90.078
6176,90.078
6177,90.130
6178,89.974
6179,90.026
6180,90.130
6181,90.182
6182,90.078
6183,90.078
6184,90.130
6185,90.130
6186,90.078
6187,90.026
6188,90.130
6189,90.130
6190,90.078
6191,90.078
6192,90.130
6193,90.078
6194,90.078
6195,90.026
6196,90.078
6197,90.078
6198,90.078
6199,90.078
6200,90.026
6201,90.130
6202,90.078
6203,89.974
6204,89.974
6205,90.130
6206,90.130
6207,90.078
6208,90.078
6209,90.182
6210,90.130
6211,90.130
6212,90.130
6213,90.182
6214,90.130
6215,90.078
6216,90.130
6217,90.078
6218,90.130
6219,90.078
6220,90.078
6221,90.078
6222,90.078
6223,90.130
6224,90.078
6225,90.026
6226,90.078
6227,90.182
6228,90.026
6229,90.026
6230,90.078
6231,90.234
6232,90.078
6233,90.026
6234,90.078
6235,90.234
6236,90.078
6237,90.078
6238,90.130
6239,90.078
6240,90.078
6241,89.974
6242,90.078
6243,90.026
6244,89.974
6245,89.974
6246,90.078
6247,90.078
6248,90.078
6249,89.974
6250,90.026
6251,90.078
6252,90.130
6253,89.974
6254,90.026
6255,90.182
6256,90.130
6257,90.078
6258,90.078
6259,90.130
6260,90.182
6261,90.078
6262,90.130
6263,90.234
6264,90.130
6265,90.078
6266,90.130
6267,90.078
6268,90.078
6269,90.026
6270,90.130
6271,90.078
6272,90.078
6273,90.078
6274,89.974
6275,90.078
6276,90.078
6277,90.286
6278,90.078
6279,90.078
6280,90.078
6281,90.182
6282,90.078
6283,90.078
6284,90.130
6285,90.234
6286,90.130
6287,90.182
6288,90.182
6289,90.234
6290,90.182
6291,90.130
6292,90.234
6293,90.234
6294,90.182
6295,90.130
6296,90.234
6297,90.234
6298,90.286
6299,90.078
6300,90.182
6301,90.338
6302,90.286
6303,90.286
6304,90.234
6305,90.286
6306,90.286
6307,90.286
6308,90.182
6309,90.338
6310,90.286
6311,90.286
6312,90.286
6313,90.286
6314,90.286
6315,90.130
6316,90.286
6317,90.286
6318,90.286
6319,90.182
6320,90.234
6321,90.286
6322,90.286
6323,90.286
6324,90.182
6325,90.286
6326,90.234
6327,90.390
6328,90.286
6329,90.234
6330,90.182
6331,90.338
6332,90.182
6333,90.234
6334,90.182
6335,90.286
6336,90.234
6337,90.234
6338,90.286
6339,90.234
6340,90.234
6341,90.130
6342,90.286
6343,90.234
6344,90.286
6345,90.078
6346,90.234
6347,90.286
6348,90.338
6349,90.078
6350,90.234
6351,90.338
6352,90.390
6353,90.286
6354,90.234
6355,90.390
6356,90.390
6357,90.286
6358,90.234
6359,90.286
6360,90.286
6361,90.234
6362,90.286
6363,90.338
6364,90.338
6365,90.234
6366,90.286
6367,90.338
6368,90.286
6369,90.286
6370,90.234
6371,90.286
6372,90.286
6373,90.286
6374,90.286
6375,90.286
6376,90.286
6377,90.286
6378,90.286
6379,90.182
6380,90.286
6381,90.390
6382,90.286
6383,90.182
6384,90.182
6385,90.286
6386,90.182
6387,90.286
6388,90.286
6389,90.234
6390,90.234
6391,90.234
6392,90.286
6393,90.234
6394,90.286
6395,90.130
6396,90.286
6397,90.286
6398,90.442
6399,90.286
6400,90.182
6401,90.286
6402,90.338
6403,90.234
6404,90.130
6405,90.286
6406,90.390
6407,90.234
6408,90.130
6409,90.338
6410,90.286
6411,90.286
6412,90.286
6413,90.338
6414,90.286
6415,90.286
6416,90.286
6417,90.286
6418,90.286
6419,90.286
6420,90.130
6421,90.286
6422,90.338
6423,90.286
6424,90.286
6425,90.234
6426,90.286
6427,90.286
6428,90.286
6429,90.234
6430,90.286
6431,90.286
6432,90.182
6433,90.234
6434,90.234
6435,90.286
6436,90.234
6437,90.234
6438,90.286
6439,90.286
6440,90.286
6441,90.130
6442,90.286
6443,90.286
6444,90.390
6445,90.286
6446,90.286
6447,90.286
6448,90.390
6449,90.286
6450,90.234
6451,90.286
6452,90.442
6453,90.286
6454,90.234
6455,90.286
6456,90.390
6457,90.286
6458,90.286
6459,90.390
6460,90.442
6461,90.286
6462,90.286
6463,90.494
6464,90.390
6465,90.338
6466,90.286
6467,90.390
6468,90.442
6469,90.390
6470,90.442
6471,90.286
6472,90.442
6473,90.390
6474,90.390
6475,90.286
6476,90.338
6477,90.286
6478,90.286
6479,90.286
6480,90.338
6481,90.338
6482,90.286
6483,90.338
6484,90.338
6485,90.442
6486,90.286
6487,90.390
6488,90.338
6489,90.442
6490,90.390
6491,90.286
6492,90.390
6493,90.442
6494,90.494
6495,90.442
6496,90.390
6497,90.390
6498,90.494
6499,90.390
6500,90.338
6501,90.286
6502,90.494
6503,90.390
6504,90.286
6505,90.338
6506,90.442
6507,90.338
6508,90.286
6509,90.442
6510,90.442
6511,90.338
6512,90.234
6513,90.442
6514,90.390
6515,90.390
6516,90.234
6517,90.442
6518,90.442
6519,90.390
6520,90.286
6521,90.286
6522,90.338
6523,90.390
6524,90.286
6525,90.286
6526,90.338
6527,90.390
6528,90.286
6529,90.286
6530,90.390
6531,90.338
6532,90.286
6533,90.442
6534,90.442
6535,90.390
6536,90.338
6537,90.338
6538,90.390
6539,90.442
6540,90.390
6541,90.442
6542,90.390
6543,90.442
6544,90.494
6545,90.390
6546,90.338
6547,90.338
6548,90.494
6549,90.338
6550,90.286
6551,90.286
6552,90.494
6553,90.390
6554,90.390
6555,90.338
6556,90.442
6557,90.390
6558,90.442
6559,90.442
6560,90.390
6561,90.442
6562,90.234
6563,90.442
6564,90.442
6565,90.390
6566,90.286
6567,90.390
6568,90.390
6569,90.442
6570,90.286
6571,90.286
6572,90.390
6573,90.390
6574,90.338
6575,90.286
6576,90.390
6577,90.338
6578,90.338
6579,90.286
6580,90.390
6581,90.390
6582,90.338
6583,90.338
6584,90.442
6585,90.338
6586,90.338
6587,90.286
6588,90.390
6589,90.494
6590,90.442
6591,90.494
6592,90.390
6593,90.494
6594,90.442
6595,90.442
6596,90.338
6597,90.286
6598,90.494
6599,90.338
6600,90.286
6601,90.338
6602,90.494
6603,90.286
6604,90.390
6605,90.390
6606,90.442
6607,90.390
6608,90.286
6609,90.390
6610,90.442
6611,90.390
6612,90.234
6613,90.442
6614,90.338
6615,90.442
6616,90.286
6617,90.442
6618,90.390
6619,90.494
6620,90.286
6621,90.338
6622,90.442
6623,90.442
6624,90.390
6625,90.338
6626,90.494
6627,90.442
6628,90.442
6629,90.390
6630,90.494
6631,90.494
6632,90.442
6633,90.338
6634,90.494
6635,90.494
6636,90.494
6637,90.494
6638,90.494
6639,90.442
6640,90.442
6641,90.494
6642,90.442
6643,90.494
6644,90.494
6645,90.494
6646,90.390
6647,90.494
6648,90.494
6649,90.494
6650,90.442
6651,90.494
6652,90.545
6653,90.494
6654,90.442
6655,90.494
6656,90.545
6657,90.494
6658,90.390
6659,90.390
6660,90.545
6661,90.494
6662,90.390
6663,90.494
6664,90.494
6665,90.494
6666,90.390
6667,90.442
6668,90.442
6669,90.494
6670,90.286
6671,90.390
6672,90.390
6673,90.494
6674,90.390
6675,90.390
6676,90.494
6677,90.494
6678,90.442
6679,90.494
6680,90.545
6681,90.494
6682,90.494
6683,90.286
6684,90.545
6685,90.494
6686,90.442
6687,90.494
6688,90.390
6689,90.442
6690,90.494
6691,90.494
6692,90.390
6693,90.494
6694,90.494
6695,90.494
6696,90.442
6697,90.494
6698,90.494
6699,90.494
6700,90.494
6701,90.494
6702,90.494
6703,90.442
6704,90.390
6705,90.494
6706,90.597
6707,90.494
6708,90.442
6709,90.494
6710,90.494
6711,90.494
6712,90.494
6713,90.390
6714,90.442
6715,90.494
6716,90.390
6717,90.338
6718,90.442
6719,90.494
6720,90.338
6721,90.390
6722,90.442
6723,90.545
6724,90.494
6725,90.494
6726,90.494
6727,90.494
6728,90.442
6729,90.286
6730,90.545
6731,90.494
6732,90.442
6733,90.390
6734,90.494
6735,90.494
6736,90.494
6737,90.390
6738,90.494
6739,90.494
6740,90.494
6741,90.494
6742,90.442
6743,90.442
6744,90.494
6745,90.545
6746,90.442
6747,90.494
6748,90.494
6749,90.494
6750,90.442
6751,90.494
6752,90.494
6753,90.494
6754,90.338
6755,90.494
6756,90.494
6757,90.494
6758,90.494
6759,90.390
6760,90.545
6761,90.390
6762,90.390
6763,90.286
6764,90.442
6765,90.494
6766,90.390
6767,90.390
6768,90.494
6769,90.545
6770,90.494
6771,90.442
6772,90.442
6773,90.597
6774,90.494
6775,90.494
6776,90.494
6777,90.545
6778,90.494
6779,90.286
6780,90.545
6781,90.494
6782,90.442
6783,90.390
6784,90.545
6785,90.494
6786,90.545
6787,90.494
6788,90.494
6789,90.545
6790,90.545
6791,90.494
6792,90.494
6793,90.545
6794,90.597
6795,90.545
6796,90.545
6797,90.597
6798,90.545
6799,90.597
6800,90.494
6801,90.545
6802,90.545
6803,90.545
6804,90.494
6805,90.545
6806,90.545
6807,90.545
6808,90.494
6809,90.494
6810,90.545
6811,90.545
6812,90.494
6813,90.442
6814,90.545
6815,90.649
6816,90.494
6817,90.494
6818,90.545
6819,90.701
6820,90.597
6821,90.494
6822,90.649
6823,90.701
6824,90.545
6825,90.494
6826,90.649
6827,90.649
6828,90.597
6829,90.494
6830,90.597
6831,90.649
6832,90.494
6833,90.545
6834,90.597
6835,90.597
6836,90.597
6837,90.494
6838,90.545
6839,90.494
6840,90.649
6841,90.494
6842,90.545
6843,90.597
6844,90.649
6845,90.597
6846,90.494
6847,90.494
6848,90.545
6849,90.545
6850,90.442
6851,90.597
6852,90.494
6853,90.494
6854,90.545
6855,90.545
6856,90.494
6857,90.545
6858,90.494
6859,90.442
6860,90.494
6861,90.545
6862,90.494
6863,90.442
6864,90.597
6865,90.545
6866,90.494
6867,90.442
6868,90.545
6869,90.597
6870,90.494
6871,90.494
6872,90.597
6873,90.701
6874,90.597
6875,90.494
6876,90.597
6877,90.649
6878,90.545
6879,90.545
6880,90.545
6881,90.597
6882,90.545
6883,90.494
6884,90.597
6885,90.597
6886,90.649
6887,90.494
6888,90.649
6889,90.649
6890,90.649
6891,90.494
6892,90.649
6893,90.597
6894,90.597
6895,90.545
6896,90.442
6897,90.649
6898,90.597
6899,90.545
6900,90.545
6901,90.597
6902,90.494
6903,90.494
6904,90.494
6905,90.494
6906,90.494
6907,90.545
6908,90.545
6909,90.494
6910,90.494
6911,90.545
6912,90.545
6913,90.442
6914,90.545
6915,90.545
6916,90.597
6917,90.494
6918,90.545
6919,90.649
6920,90.597
6921,90.442
6922,90.597
6923,90.597
6924,90.545
6925,90.494
6926,90.545
6927,90.649
6928,90.545
6929,90.545
6930,90.494
6931,90.649
6932,90.545
6933,90.494
6934,90.545
6935,90.597
6936,90.649
6937,90.494
6938,90.545
6939,90.597
6940,90.649
6941,90.494
6942,90.494
6943,90.597
6944,90.649
6945,90.494
6946,90.494
6947,90.597
6948,90.494
6949,90.494
6950,90.494
6951,90.597
6952,90.494
6953,90.545
6954,90.494
6955,90.494
6956,90.442
6957,90.545
6958,90.494
6959,90.494
6960,90.545
6961,90.649
6962,90.649
6963,90.545
6964,90.597
6965,90.649
6966,90.545
6967,90.442
6968,90.545
6969,90.494
6970,90.545
6971,90.390
6972,90.494
6973,90.597
6974,90.494
6975,90.494
6976,90.494
6977,90.545
6978,90.545
6979,90.494
6980,90.494
6981,90.597
6982,90.597
6983,90.494
6984,90.442
6985,90.649
6986,90.649
6987,90.545
6988,90.545
6989,90.597
6990,90.649
6991,90.494
6992,90.494
6993,90.545
6994,90.649
6995,90.494
6996,90.545
6997,90.545
6998,90.545
6999,90.494
7000,90.494
7001,90.545
7002,90.494
7003,90.494
7004,90.494
7005,90.494
7006,90.545
7007,90.597
7008,90.494
7009,90.545
7010,90.597
7011,90.649
7012,90.597
7013,90.545
7014,90.597
7015,90.545
7016,90.597
7017,90.390
7018,90.597
7019,90.597
7020,90.545
7021,90.545
7022,90.545
7023,90.545
7024,90.597
7025,90.494
7026,90.494
7027,90.649
7028,90.545
7029,90.545
7030,90.494
7031,90.649
7032,90.701
7033,90.545
7034,90.494
7035,90.649
7036,90.649
7037,90.494
7038,90.494
7039,90.649
7040,90.597
7041,90.494
7042,90.390
7043,90.494
7044,90.545
7045,90.442
7046,90.494
7047,90.494
7048,90.494
7049,90.494
7050,90.494
7051,90.545
7052,90.597
7053,90.597
7054,90.494
7055,90.597
7056,90.597
7057,90.701
7058,90.494
7059,90.545
7060,90.649
7061,90.701
7062,90.494
7063,90.494
7064,90.597
7065,90.545
7066,90.597
7067,90.494
7068,90.545
7069,90.545
7070,90.545
7071,90.494
7072,90.545
7073,90.494
7074,90.545
7075,90.494
7076,90.494
7077,90.545
7078,90.597
7079,90.494
7080,90.494
7081,90.649
7082,90.649
7083,90.545
7084,90.494
7085,90.649
7086,90.649
7087,90.494
7088,90.338
7089,90.494
7090,90.597
7091,90.494
7092,90.494
7093,90.545
7094,90.545
7095,90.442
7096,90.545
7097,90.494
7098,90.597
7099,90.545
7100,90.545
7101,90.545
7102,90.597
7103,90.545
7104,90.545
7105,90.597
7106,90.649
7107,90.649
7108,90.494
7109,90.597
7110,90.597
7111,90.649
7112,90.494
7113,90.442
7114,90.545
7115,90.545
7116,90.545
7117,90.545
7118,90.597
7119,90.545
7120,90.597
7121,90.597
7122,90.701
7123,90.545
7124,90.701
7125,90.649
7126,90.649
7127,90.649
7128,90.701
7129,90.649
7130,90.545
7131,90.649
7132,90.649
7133,90.597
7134,90.494
7135,90.597
7136,90.701
7137,90.597
7138,90.390
7139,90.649
7140,90.649
7141,90.545
7142,90.545
7143,90.597
7144,90.701
7145,90.597
7146,90.649
7147,90.649
7148,90.701
7149,90.649
7150,90.649
7151,90.649
7152,90.753
7153,90.701
7154,90.649
7155,90.649
7156,90.701
7157,90.701
7158,90.597
7159,90.545
7160,90.649
7161,90.701
7162,90.494
7163,90.545
7164,90.597
7165,90.649
7166,90.494
7167,90.649
7168,90.701
7169,90.597
7170,90.649
7171,90.649
7172,90.649
7173,90.597
7174,90.649
7175,90.597
7176,90.649
7177,90.545
7178,90.649
7179,90.597
7180,90.494
7181,90.597
7182,90.597
7183,90.545
7184,90.390
7185,90.597
7186,90.649
7187,90.597
7188,90.494
7189,90.597
7190,90.597
7191,90.597
7192,90.545
7193,90.649
7194,90.649
7195,90.649
7196,90.597
7197,90.597
7198,90.701
7199,90.701
7200,90.701
7201,90.649
7202,90.701
7203,90.701
7204,90.649
7205,90.545
7206,90.649
7207,90.701
7208,90.597
7209,90.494
7210,90.649
7211,90.649
7212,90.597
7213,90.649
7214,90.701
7215,90.701
7216,90.545
7217,90.701
7218,90.701
7219,90.701
7220,90.649
7221,90.649
7222,90.649
7223,90.649
7224,90.701
7225,90.597
7226,90.649
7227,90.597
7228,90.701
7229,90.597
7230,90.494
7231,90.597
7232,90.649
7233,90.597
7234,90.442
7235,90.597
7236,90.597
7237,90.597
7238,90.545
7239,90.597
7240,90.597
7241,90.545
7242,90.597
7243,90.649
7244,90.701
7245,90.649
7246,90.649
7247,90.649
7248,90.701
7249,90.701
7250,90.701
7251,90.545
7252,90.701
7253,90.649
7254,90.545
7255,90.442
7256,90.649
7257,90.701
7258,90.545
7259,90.597
7260,90.701
7261,90.753
7262,90.545
7263,90.649
7264,90.701
7265,90.649
7266,90.545
7267,90.701
7268,90.701
7269,90.701
7270,90.597
7271,90.649
7272,90.649
7273,90.701
7274,90.701
7275,90.649
7276,90.701
7277,90.597
7278,90.701
7279,90.597
7280,90.494
7281,90.545
7282,90.701
7283,90.545
7284,90.494
7285,90.545
7286,90.649
7287,90.597
7288,90.597
7289,90.701
7290,90.649
7291,90.649
7292,90.701
7293,90.701
7294,90.701
7295,90.701
7296,90.649
7297,90.649
7298,90.701
7299,90.701
7300,90.597
7301,90.545
7302,90.701
7303,90.701
7304,90.597
7305,90.442
7306,90.701
7307,90.701
7308,90.649
7309,90.545
7310,90.701
7311,90.701
7312,90.545
7313,90.701
7314,90.701
7315,90.701
7316,90.545
7317,90.701
7318,90.649
7319,90.701
7320,90.545
7321,90.701
7322,90.649
7323,90.649
7324,90.649
7325,90.649
7326,90.494
7327,90.597
7328,90.701
7329,90.545
7330,90.494
7331,90.597
7332,90.649
7333,90.597
7334,90.545
7335,90.597
7336,90.701
7337,90.701
7338,90.649
7339,90.701
7340,90.701
7341,90.701
7342,90.701
7343,90.701
7344,90.649
7345,90.701
7346,90.701
7347,90.597
7348,90.701
7349,90.753
7350,90.649
7351,90.442
7352,90.701
7353,90.701
7354,90.545
7355,90.545
7356,90.649
7357,90.701
7358,90.597
7359,90.494
7360,90.701
7361,90.701
7362,90.649
7363,90.649
7364,90.753
7365,90.701
7366,90.649
7367,90.701
7368,90.701
7369,90.649
7370,90.649
7371,90.649
7372,90.545
7373,90.597
7374,90.649
7375,90.545
7376,90.390
7377,90.597
7378,90.701
7379,90.494
7380,90.494
7381,90.597
7382,90.701
7383,90.597
7384,90.597
7385,90.649
7386,90.701
7387,90.649
7388,90.649
7389,90.649
7390,90.701
7391,90.701
7392,90.649
7393,90.701
7394,90.649
7395,90.701
7396,90.649
7397,90.597
7398,90.649
7399,90.753
7400,90.597
7401,90.442
7402,90.701
7403,90.701
7404,90.545
7405,90.494
7406,90.701
7407,90.701
7408,90.649
7409,90.597
7410,90.701
7411,90.701
7412,90.597
7413,90.597
7414,90.701
7415,90.649
7416,90.545
7417,90.649
7418,90.597
7419,90.649
7420,90.545
7421,90.597
7422,90.442
7423,90.649
7424,90.649
7425,90.597
7426,90.494
7427,90.649
7428,90.701
7429,90.597
7430,90.649
7431,90.597
7432,90.701
7433,90.597
7434,90.701
7435,90.649
7436,90.701
7437,90.649
7438,90.701
7439,90.701
7440,90.701
7441,90.701
7442,90.701
7443,90.701
7444,90.649
7445,90.701
7446,90.649
7447,90.494
7448,90.597
7449,90.701
7450,90.649
7451,90.649
7452,90.701
7453,90.805
7454,90.701
7455,90.701
7456,90.805
7457,90.805
7458,90.701
7459,90.701
7460,90.857
7461,90.753
7462,90.649
7463,90.701
7464,90.753
7465,90.753
7466,90.649
7467,90.701
7468,90.701
7469,90.701
7470,90.701
7471,90.753
7472,90.494
7473,90.701
7474,90.701
7475,90.701
7476,90.597
7477,90.701
7478,90.701
7479,90.701
7480,90.701
7481,90.753
7482,90.805
7483,90.701
7484,90.805
7485,90.753
7486,90.857
7487,90.753
7488,90.805
7489,90.805
7490,90.805
7491,90.753
7492,90.753
7493,90.649
7494,90.701
7495,90.909
7496,90.753
7497,90.597
7498,90.701
7499,90.909
7500,90.805
7501,90.649
7502,90.701
7503,90.857
7504,90.753
7505,90.701
7506,90.753
7507,90.805
7508,90.753
7509,90.701
7510,90.805
7511,90.753
7512,90.701
7513,90.649
7514,90.805
7515,90.753
7516,90.701
7517,90.701
7518,90.597
7519,90.701
7520,90.753
7521,90.701
7522,90.597
7523,90.701
7524,90.701
7525,90.701
7526,90.701
7527,90.805
7528,90.753
7529,90.701
7530,90.753
7531,90.805
7532,90.753
7533,90.701
7534,90.805
7535,90.753
7536,90.701
7537,90.649
7538,90.753
7539,90.753
7540,90.701
7541,90.701
7542,90.753
7543,90.545
7544,90.701
7545,90.909
7546,90.753
7547,90.701
7548,90.753
7549,90.909
7550,90.753
7551,90.701
7552,90.701
7553,90.909
7554,90.805
7555,90.701
7556,90.753
7557,90.805
7558,90.753
7559,90.701
7560,90.805
7561,90.753
7562,90.701
7563,90.701
7564,90.701
7565,90.701
7566,90.701
7567,90.649
7568,90.545
7569,90.701
7570,90.805
7571,90.701
7572,90.701
7573,90.805
7574,90.857
7575,90.753
7576,90.701
7577,90.805
7578,90.857
7579,90.701
7580,90.701
7581,90.805
7582,90.701
7583,90.701
7584,90.753
7585,90.753
7586,90.701
7587,90.701
7588,90.753
7589,90.649
7590,90.753
7591,90.701
7592,90.805
7593,90.649
7594,90.753
7595,90.805
7596,90.701
7597,90.701
7598,90.753
7599,90.909
7600,90.753
7601,90.701
7602,90.701
7603,90.909
7604,90.753
7605,90.701
7606,90.701
7607,90.753
7608,90.701
7609,90.701
7610,90.701
7611,90.701
7612,90.701
7613,90.649
7614,90.649
7615,90.701
7616,90.753
7617,90.701
7618,90.701
7619,90.753
7620,90.909
7621,90.753
7622,90.753
7623,90.857
7624,90.909
7625,90.753
7626,90.701
7627,90.805
7628,90.857
7629,90.701
7630,90.649
7631,90.805
7632,90.753
7633,90.649
7634,90.701
7635,90.753
7636,90.753
7637,90.649
7638,90.805
7639,90.701
7640,90.753
7641,90.701
7642,90.805
7643,90.805
7644,90.805
7645,90.805
7646,90.805
7647,90.701
7648,90.753
7649,90.857
7650,90.753
7651,90.753
7652,90.701
7653,90.805
7654,90.701
7655,90.701
7656,90.701
7657,90.753
7658,90.701
7659,90.701
7660,90.701
7661,90.753
7662,90.753
7663,90.701
7664,90.649
7665,90.701
7666,90.857
7667,90.805
7668,90.753
7669,90.857
7670,90.909
7671,90.805
7672,90.701
7673,90.805
7674,90.909
7675,90.753
7676,90.701
7677,90.753
7678,90.805
7679,90.753
7680,90.649
7681,90.753
7682,90.753
7683,90.701
7684,90.701
7685,90.701
7686,90.805
7687,90.701
7688,90.805
7689,90.701
7690,90.753
7691,90.753
7692,90.805
7693,90.701
7694,90.753
7695,90.753
7696,90.753
7697,90.753
7698,90.753
7699,90.805
7700,90.701
7701,90.701
7702,90.701
7703,90.753
7704,90.649
7705,90.701
7706,90.753
7707,90.753
7708,90.701
7709,90.701
7710,90.597
7711,90.701
7712,90.805
7713,90.753
7714,90.701
7715,90.753
7716,90.857
7717,90.753
7718,90.753
7719,90.753
7720,90.961
7721,90.753
7722,90.701
7723,90.753
7724,90.857
7725,90.753
7726,90.649
7727,90.805
7728,90.805
7729,90.753
7730,90.649
7731,90.805
7732,90.805
7733,90.701
7734,90.701
7735,90.701
7736,90.805
7737,90.701
7738,90.753
7739,90.805
7740,90.753
7741,90.753
7742,90.753
7743,90.701
7744,90.805
7745,90.753
7746,90.753
7747,90.649
7748,90.701
7749,90.701
7750,90.753
7751,90.701
7752,90.753
7753,90.701
7754,90.649
7755,90.753
7756,90.701
7757,90.701
7758,90.701
7759,90.701
7760,90.597
7761,90.701
7762,90.753
7763,90.701
7764,90.701
7765,90.753
7766,90.857
7767,90.805
7768,90.701
7769,90.701
7770,90.909
7771,90.753
7772,90.701
7773,90.753
7774,90.857
7775,90.753
7776,90.701
7777,90.753
7778,90.805
7779,90.701
7780,90.701
7781,90.701
7782,90.753
7783,90.805
7784,90.701
7785,90.701
7786,90.753
7787,90.753
7788,90.701
7789,90.753
7790,90.753
7791,90.753
7792,90.753
7793,90.701
7794,90.753
7795,90.753
7796,90.701
7797,90.649
7798,90.701
7799,90.701
7800,90.701
7801,90.701
7802,90.701
7803,90.701
7804,90.649
7805,90.753
7806,90.545
7807,90.753
7808,90.649
7809,90.753
7810,90.701
7811,90.701
7812,90.701
7813,90.753
7814,90.701
7815,90.805
7816,90.857
7817,90.753
7818,90.701
7819,90.753
7820,90.857
7821,90.701
7822,90.649
7823,90.701
7824,90.805
7825,90.701
7826,90.753
7827,90.805
7828,90.805
7829,90.753
7830,90.701
7831,90.701
7832,90.805
7833,90.753
7834,90.701
7835,90.753
7836,90.805
7837,90.805
7838,90.649
7839,90.701
7840,90.753
7841,90.805
7842,90.701
7843,90.701
7844,90.753
7845,90.753
7846,90.701
7847,90.649
7848,90.701
7849,90.701
7850,90.701
7851,90.649
7852,90.701
7853,90.701
7854,90.701
7855,90.753
7856,90.649
7857,90.753
7858,90.753
7859,90.753
7860,90.805
7861,90.805
7862,90.805
7863,90.805
7864,90.701
7865,90.701
7866,90.805
7867,90.701
7868,90.701
7869,90.649
7870,90.857
7871,90.753
7872,90.753
7873,90.701
7874,90.805
7875,90.701
7876,90.753
7877,90.701
7878,90.805
7879,90.753
7880,90.753
7881,90.805
7882,90.805
7883,90.805
7884,90.701
7885,90.805
7886,90.805
7887,90.805
7888,90.701
7889,90.753
7890,90.805
7891,90.805
7892,90.701
7893,90.701
7894,90.753
7895,90.753
7896,90.701
7897,90.649
7898,90.701
7899,90.701
7900,90.753
7901,90.701
7902,90.701
7903,90.805
7904,90.701
7905,90.753
7906,90.753
7907,90.805
7908,90.701
7909,90.753
7910,90.701
7911,90.753
7912,90.701
7913,90.805
7914,90.701
7915,90.701
7916,90.701
7917,90.753
7918,90.701
7919,90.701
7920,90.805
7921,90.753
7922,90.701
7923,90.701
7924,90.857
7925,90.701
7926,90.701
7927,90.649
7928,90.805
7929,90.753
7930,90.753
7931,90.701
7932,90.857
7933,90.805
7934,90.701
7935,90.701
7936,90.701
7937,90.805
7938,90.649
7939,90.701
7940,90.701
7941,90.753
7942,90.649
7943,90.701
7944,90.753
7945,90.857
7946,90.753
7947,90.701
7948,90.753
7949,90.805
7950,90.753
7951,90.753
7952,90.857
7953,90.805
7954,90.753
7955,90.753
7956,90.805
7957,90.805
7958,90.805
7959,90.857
7960,90.753
7961,90.805
7962,90.857
7963,90.857
7964,90.805
7965,90.857
7966,90.857
7967,90.857
7968,90.805
7969,90.805
7970,90.909
7971,90.857
7972,90.805
7973,90.701
7974,90.909
7975,90.909
7976,90.805
7977,90.805
7978,90.961
7979,90.857
7980,90.805
7981,90.805
7982,90.909
7983,90.857
7984,90.753
7985,90.753
7986,90.805
7987,90.857
7988,90.701
7989,90.753
7990,90.805
7991,90.909
7992,90.753
7993,90.753
7994,90.805
7995,90.909
7996,90.805
7997,90.805
7998,90.805
7999,90.909
8000,90.805
8001,90.805
8002,90.909
8003,90.909
8004,90.805
8005,90.805
8006,90.909
8007,90.857
8008,90.909
8009,90.753
8010,90.805
8011,90.857
8012,90.805
8013,90.857
8014,90.753
8015,90.805
8016,90.805
8017,90.857
8018,90.753
8019,90.805
8020,90.753
8021,90.805
8022,90.909
8023,90.701
8024,90.909
8025,90.805
8026,90.857
8027,90.753
8028,90.857
8029,90.857
8030,90.805
8031,90.701
8032,90.753
8033,90.805
8034,90.701
8035,90.701
8036,90.753
8037,90.909
8038,90.753
8039,90.753
8040,90.805
8041,90.909
8042,90.805
8043,90.805
8044,90.701
8045,90.909
8046,90.753
8047,90.805
8048,90.753
8049,90.909
8050,90.805
8051,90.805
8052,90.961
8053,90.909
8054,90.909
8055,90.753
8056,90.857
8057,90.805
8058,90.857
8059,90.753
8060,90.805
8061,90.909
8062,90.909
8063,90.805
8064,90.857
8065,90.805
8066,90.909
8067,90.805
8068,90.753
8069,90.701
8070,90.753
8071,90.805
8072,90.753
8073,90.857
8074,90.753
8075,90.753
8076,90.753
8077,90.805
8078,90.805
8079,90.753
8080,90.805
8081,90.701
8082,90.805
8083,90.857
8084,90.753
8085,90.701
8086,90.857
8087,90.909
8088,90.805
8089,90.805
8090,90.857
8091,90.961
8092,90.857
8093,90.857
8094,90.701
8095,90.909
8096,90.805
8097,90.805
8098,90.909
8099,90.909
8100,90.857
8101,90.857
8102,90.909
8103,90.909
8104,90.857
8105,90.805
8106,90.805
8107,90.857
8108,90.857
8109,90.701
8110,90.805
8111,90.857
8112,90.857
8113,90.805
8114,90.805
8115,90.805
8116,90.909
8117,90.909
8118,90.857
8119,90.753
8120,90.753
8121,90.805
8122,90.857
8123,90.857
8124,90.805
8125,90.753
8126,90.805
8127,90.753
8128,90.701
8129,90.805
8130,90.753
8131,90.701
8132,90.805
8133,90.805
8134,90.753
8135,90.701
8136,90.805
8137,90.909
8138,90.805
8139,90.701
8140,90.701
8141,90.909
8142,90.805
8143,90.857
8144,90.805
8145,90.909
8146,90.857
8147,90.909
8148,90.857
8149,90.909
8150,90.753
8151,90.701
8152,90.805
8153,90.857
8154,90.805
8155,90.753
8156,90.805
8157,90.857
8158,90.909
8159,90.753
8160,90.857
8161,90.857
8162,90.909
8163,90.805
8164,90.805
8165,90.701
8166,90.909
8167,90.857
8168,90.805
8169,90.857
8170,90.805
8171,90.805
8172,90.805
8173,90.805
8174,90.753
8175,90.753
8176,90.805
8177,90.753
8178,90.753
8179,90.805
8180,90.753
8181,90.701
8182,90.753
8183,90.805
8184,90.805
8185,90.753
8186,90.805
8187,90.857
8188,90.857
8189,90.753
8190,90.753
8191,90.909
8192,90.909
8193,90.857
8194,90.909
8195,90.961
8196,90.857
8197,90.805
8198,90.805
8199,90.909
8200,90.805
8201,90.805
8202,90.753
8203,90.857
8204,90.857
8205,90.805
8206,90.805
8207,90.909
8208,91.013
8209,90.805
8210,90.909
8211,90.909
8212,90.961
8213,90.805
8214,90.805
8215,90.753
8216,90.857
8217,90.753
8218,90.805
8219,90.857
8220,90.805
8221,90.753
8222,90.753
8223,90.805
8224,90.753
8225,90.805
8226,90.701
8227,90.753
8228,90.753
8229,90.857
8230,90.805
8231,90.753
8232,90.805
8233,90.857
8234,90.805
8235,90.805
8236,90.753
8237,90.909
8238,90.909
8239,90.805
8240,90.857
8241,90.909
8242,90.909
8243,90.805
8244,90.805
8245,90.857
8246,90.805
8247,90.857
8248,90.805
8249,90.909
8250,90.909
8251,90.805
8252,90.805
8253,90.909
8254,90.909
8255,90.805
8256,90.805
8257,90.909
8258,91.065
8259,90.701
8260,90.857
8261,90.805
8262,90.909
8263,90.805
8264,90.805
8265,90.909
8266,90.857
8267,90.753
8268,90.857
8269,90.753
8270,90.805
8271,90.753
8272,90.753
8273,90.805
8274,90.753
8275,90.857
8276,90.805
8277,90.857
8278,90.805
8279,90.909
8280,90.909
8281,90.857
8282,90.909
8283,90.909
8284,90.909
8285,90.805
8286,90.701
8287,90.805
8288,90.857
8289,90.857
8290,90.805
8291,90.805
8292,90.805
8293,90.857
8294,90.909
8295,90.909
8296,90.805
8297,90.857
8298,90.805
8299,90.909
8300,90.909
8301,90.857
8302,90.805
8303,90.909
8304,90.909
8305,90.857
8306,90.753
8307,90.805
8308,90.909
8309,90.805
8310,90.805
8311,90.753
8312,90.909
8313,90.753
8314,90.805
8315,90.805
8316,90.805
8317,90.701
8318,90.753
8319,90.805
8320,90.805
8321,90.753
8322,90.805
8323,90.909
8324,90.857
8325,90.909
8326,90.805
8327,90.909
8328,90.909
8329,90.909
8330,90.857
8331,90.909
8332,90.805
8333,90.909
8334,90.857
8335,90.805
8336,90.805
8337,90.857
8338,90.909
8339,90.857
8340,90.857
8341,90.753
8342,90.857
8343,90.857
8344,90.857
8345,90.857
8346,90.857
8347,90.857
8348,90.805
8349,90.909
8350,90.909
8351,90.857
8352,90.805
8353,90.909
8354,90.909
8355,90.805
8356,90.805
8357,90.753
8358,90.857
8359,90.753
8360,90.701
8361,90.805
8362,90.857
8363,90.753
8364,90.753
8365,90.857
8366,90.857
8367,90.701
8368,90.753
8369,90.857
8370,90.909
8371,90.805
8372,90.805
8373,90.857
8374,90.909
8375,90.857
8376,90.805
8377,90.909
8378,90.909
8379,90.909
8380,90.857
8381,90.805
8382,90.805
8383,90.909
8384,90.909
8385,90.909
8386,90.805
8387,90.805
8388,90.857
8389,90.805
8390,90.909
8391,90.753
8392,90.857
8393,90.805
8394,90.909
8395,90.805
8396,90.909
8397,90.857
8398,90.753
8399,90.805
8400,90.909
8401,90.857
8402,90.701
8403,90.701
8404,90.909
8405,90.753
8406,90.649
8407,90.753
8408,90.805
8409,90.805
8410,90.701
8411,90.805
8412,90.805
8413,90.701
8414,90.753
8415,90.753
8416,90.909
8417,90.753
8418,90.857
8419,90.805
8420,90.857
8421,90.805
8422,90.857
8423,90.857
8424,90.909
8425,90.909
8426,90.909
8427,90.857
8428,90.753
8429,90.909
8430,90.753
8431,90.753
8432,90.857
8433,90.909
8434,90.701
8435,90.805
8436,90.909
8437,90.805
8438,90.857
8439,90.909
8440,90.909
8441,90.805
8442,90.909
8443,90.857
8444,90.909
8445,90.805
8446,90.857
8447,90.857
8448,90.805
8449,90.805
8450,90.909
8451,90.805
8452,90.701
8453,90.701
8454,90.909
8455,90.805
8456,90.701
8457,90.857
8458,90.805
8459,90.805
8460,90.701
8461,90.805
8462,90.857
8463,90.701
8464,90.753
8465,90.805
8466,90.805
8467,90.753
8468,90.805
8469,90.753
8470,90.857
8471,90.805
8472,90.857
8473,90.805
8474,90.857
8475,90.909
8476,90.857
8477,90.805
8478,90.753
8479,90.909
8480,90.753
8481,90.753
8482,90.857
8483,90.805
8484,90.805
8485,90.857
8486,90.909
8487,90.805
8488,90.805
8489,90.857
8490,90.909
8491,90.857
8492,90.909
8493,90.857
8494,90.909
8495,90.857
8496,90.909
8497,90.805
8498,90.805
8499,90.701
8500,90.909
8501,90.805
8502,90.701
8503,90.753
8504,90.909
8505,90.805
8506,90.753
8507,90.805
8508,90.857
8509,90.857
8510,90.753
8511,90.805
8512,90.805
8513,90.805
8514,90.753
8515,90.909
8516,90.909
8517,90.909
8518,90.909
8519,90.805
8520,90.909
8521,90.909
8522,90.805
8523,90.753
8524,90.753
8525,90.909
8526,90.805
8527,90.805
8528,90.805
8529,90.909
8530,90.805
8531,90.857
8532,90.857
8533,90.909
8534,90.753
8535,90.909
8536,90.909
8537,90.909
8538,90.805
8539,90.909
8540,90.909
8541,90.857
8542,90.857
8543,90.909
8544,90.909
8545,90.805
8546,90.961
8547,90.857
8548,90.805
8549,90.701
8550,90.909
8551,90.805
8552,90.753
8553,90.753
8554,90.805
8555,90.753
8556,90.753
8557,90.805
8558,90.805
8559,90.857
8560,90.753
8561,90.909
8562,90.857
8563,90.909
8564,90.857
8565,90.909
8566,90.857
8567,90.909
8568,90.857
8569,90.753
8570,90.805
8571,90.909
8572,90.805
8573,90.701
8574,90.805
8575,90.857
8576,90.805
8577,90.753
8578,90.857
8579,90.857
8580,90.805
8581,90.805
8582,90.805
8583,90.805
8584,90.753
8585,90.909
8586,90.909
8587,90.857
8588,90.805
8589,90.909
8590,90.909
8591,90.857
8592,90.805
8593,90.805
8594,90.805
8595,90.701
8596,90.909
8597,90.753
8598,90.701
8599,90.753
8600,90.857
8601,90.753
8602,90.753
8603,90.805
8604,90.857
8605,90.805
8606,90.805
8607,90.857
8608,90.857
8609,90.909
8610,90.857
8611,90.909
8612,90.909
8613,90.857
8614,90.857
8615,90.857
8616,90.805
8617,90.909
8618,90.805
8619,90.701
8620,90.701
8621,90.909
8622,90.701
8623,90.701
8624,90.805
8625,90.805
8626,90.701
8627,90.597
8628,90.753
8629,90.753
8630,90.701
8631,90.701
8632,90.857
8633,90.753
8634,90.701
8635,90.805
8636,90.857
8637,90.805
8638,90.649
8639,90.753
8640,90.753
8641,90.701
8642,90.597
8643,90.701
8644,90.701
8645,90.597
8646,90.701
8647,90.649
8648,90.649
8649,90.701
8650,90.805
8651,90.701
8652,90.701
8653,90.701
8654,90.805
8655,90.701
8656,90.701
8657,90.753
8658,90.753
8659,90.753
8660,90.701
8661,90.857
8662,90.701
8663,90.753
8664,90.753
8665,90.753
8666,90.597
8667,90.857
8668,90.701
8669,90.701
8670,90.701
8671,90.805
8672,90.701
8673,90.649
8674,90.753
8675,90.857
8676,90.701
8677,90.649
8678,90.805
8679,90.909
8680,90.753
8681,90.701
8682,90.805
8683,90.805
8684,90.701
8685,90.701
8686,90.753
8687,90.701
8688,90.701
8689,90.701
8690,90.649
8691,90.597
8692,90.701
8693,90.649
8694,90.649
8695,90.753
8696,90.701
8697,90.649
8698,90.649
8699,90.753
8700,90.805
8701,90.701
8702,90.701
8703,90.753
8704,90.805
8705,90.701
8706,90.805
8707,90.805
8708,90.753
8709,90.753
8710,90.805
8711,90.805
8712,90.701
8713,90.753
8714,90.753
8715,90.753
8716,90.545
8717,90.857
8718,90.701
8719,90.701
8720,90.753
8721,90.909
8722,90.701
8723,90.701
8724,90.805
8725,90.857
8726,90.753
8727,90.701
8728,90.805
8729,90.701
8730,90.753
8731,90.701
8732,90.857
8733,90.805
8734,90.701
8735,90.701
8736,90.753
8737,90.701
8738,90.701
8739,90.701
8740,90.649
8741,90.649
8742,90.701
8743,90.701
8744,90.701
8745,90.753
8746,90.701
8747,90.701
8748,90.701
8749,90.805
8750,90.805
8751,90.701
8752,90.805
8753,90.805
8754,90.909
8755,90.701
8756,90.805
8757,90.753
8758,90.753
8759,90.701
8760,90.805
8761,90.753
8762,90.545
8763,90.753
8764,90.805
8765,90.701
8766,90.701
8767,90.857
8768,90.753
8769,90.701
8770,90.753
8771,90.909
8772,90.753
8773,90.701
8774,90.805
8775,90.805
8776,90.753
8777,90.701
8778,90.805
8779,90.805
8780,90.701
8781,90.649
8782,90.753
8783,90.701
8784,90.701
8785,90.649
8786,90.701
8787,90.597
8788,90.701
8789,90.753
8790,90.649
8791,90.753
8792,90.701
8793,90.753
8794,90.649
8795,90.753
8796,90.857
8797,90.753
8798,90.753
8799,90.805
8800,90.857
8801,90.753
8802,90.805
8803,90.753
8804,90.753
8805,90.649
8806,90.701
8807,90.701
8808,90.701
8809,90.701
8810,90.701
8811,90.701
8812,90.597
8813,90.753
8814,90.805
8815,90.701
8816,90.701
8817,90.857
8818,90.753
8819,90.701
8820,90.753
8821,90.909
8822,90.701
8823,90.701
8824,90.753
8825,90.857
8826,90.701
8827,90.701
8828,90.805
8829,90.753
8830,90.701
8831,90.701
8832,90.753
8833,90.649
8834,90.701
8835,90.649
8836,90.701
8837,90.597
8838,90.701
8839,90.701
8840,90.701
8841,90.805
8842,90.805
8843,90.753
8844,90.701
8845,90.909
8846,90.805
8847,90.805
8848,90.701
8849,90.805
8850,90.753
8851,90.701
8852,90.805
8853,90.805
8854,90.753
8855,90.649
8856,90.701
8857,90.805
8858,90.649
8859,90.701
8860,90.753
8861,90.753
8862,90.701
8863,90.701
8864,90.805
8865,90.701
8866,90.701
8867,90.805
8868,90.701
8869,90.701
8870,90.701
8871,90.909
8872,90.753
8873,90.701
8874,90.701
8875,90.857
8876,90.701
8877,90.701
8878,90.753
8879,90.701
8880,90.701
8881,90.701
8882,90.701
8883,90.545
8884,90.649
8885,90.649
8886,90.701
8887,90.701
8888,90.701
8889,90.701
8890,90.649
8891,90.805
8892,90.805
8893,90.701
8894,90.701
8895,90.805
8896,90.805
8897,90.805
8898,90.701
8899,90.805
8900,90.753
8901,90.701
8902,90.701
8903,90.805
8904,90.701
8905,90.701
8906,90.701
8907,90.701
8908,90.597
8909,90.649
8910,90.805
8911,90.701
8912,90.701
8913,90.701
8914,90.805
8915,90.701
8916,90.753
8917,90.805
8918,90.753
8919,90.701
8920,90.701
8921,90.857
8922,90.701
8923,90.649
8924,90.701
8925,90.753
8926,90.701
8927,90.701
8928,90.649
8929,90.649
8930,90.701
8931,90.649
8932,90.753
8933,90.649
8934,90.701
8935,90.649
8936,90.753
8937,90.701
8938,90.805
8939,90.701
8940,90.701
8941,90.805
8942,90.857
8943,90.701
8944,90.701
8945,90.805
8946,90.857
8947,90.753
8948,90.701
8949,90.857
8950,90.805
8951,90.701
8952,90.649
8953,90.753
8954,90.545
8955,90.649
8956,90.649
8957,90.649
8958,90.649
8959,90.597
8960,90.649
8961,90.701
8962,90.701
8963,90.649
8964,90.701
8965,90.649
8966,90.649
8967,90.649
8968,90.597
8969,90.649
8970,90.597
8971,90.649
8972,90.597
8973,90.649
8974,90.597
8975,90.597
8976,90.494
8977,90.649
8978,90.545
8979,90.494
8980,90.649
8981,90.597
8982,90.597
8983,90.597
8984,90.649
8985,90.649
8986,90.597
8987,90.649
8988,90.701
8989,90.649
8990,90.649
8991,90.701
8992,90.805
8993,90.701
8994,90.597
8995,90.701
8996,90.701
8997,90.597
8998,90.545
8999,90.753
9000,90.597
9001,90.597
9002,90.649
9003,90.701
9004,90.545
9005,90.649
9006,90.649
9007,90.701
9008,90.701
9009,90.649
9010,90.701
9011,90.597
9012,90.701
9013,90.649
9014,90.649
9015,90.494
9016,90.649
9017,90.649
9018,90.701
9019,90.545
9020,90.597
9021,90.649
9022,90.597
9023,90.545
9024,90.597
9025,90.545
9026,90.545
9027,90.597
9028,90.597
9029,90.545
9030,90.597
9031,90.649
9032,90.545
9033,90.649
9034,90.649
9035,90.649
9036,90.597
9037,90.701
9038,90.805
9039,90.649
9040,90.649
9041,90.597
9042,90.701
9043,90.649
9044,90.545
9045,90.597
9046,90.701
9047,90.597
9048,90.597
9049,90.701
9050,90.545
9051,90.597
9052,90.545
9053,90.649
9054,90.701
9055,90.649
9056,90.597
9057,90.701
9058,90.649
9059,90.701
9060,90.701
9061,90.649
9062,90.701
9063,90.649
9064,90.649
9065,90.597
9066,90.649
9067,90.649
9068,90.597
9069,90.545
9070,90.597
9071,90.545
9072,90.545
9073,90.649
9074,90.597
9075,90.545
9076,90.597
9077,90.701
9078,90.649
9079,90.701
9080,90.649
9081,90.701
9082,90.649
9083,90.649
9084,90.753
9085,90.701
9086,90.597
9087,90.597
9088,90.753
9089,90.597
9090,90.597
9091,90.597
9092,90.753
9093,90.649
9094,90.597
9095,90.597
9096,90.701
9097,90.597
9098,90.597
9099,90.701
9100,90.545
9101,90.597
9102,90.649
9103,90.701
9104,90.701
9105,90.649
9106,90.545
9107,90.649
9108,90.649
9109,90.649
9110,90.597
9111,90.597
9112,90.649
9113,90.649
9114,90.597
9115,90.494
9116,90.649
9117,90.597
9118,90.545
9119,90.494
9120,90.649
9121,90.442
9122,90.545
9123,90.545
9124,90.597
9125,90.494
9126,90.545
9127,90.597
9128,90.649
9129,90.597
9130,90.597
9131,90.649
9132,90.545
9133,90.649
9134,90.649
9135,90.597
9136,90.597
9137,90.649
9138,90.649
9139,90.597
9140,90.494
9141,90.494
9142,90.649
9143,90.597
9144,90.494
9145,90.494
9146,90.545
9147,90.597
9148,90.494
9149,90.597
9150,90.649
9151,90.597
9152,90.494
9153,90.597
9154,90.597
9155,90.545
9156,90.494
9157,90.494
9158,90.597
9159,90.649
9160,90.494
9161,90.494
9162,90.545
9163,90.545
9164,90.494
9165,90.494
9166,90.494
9167,90.494
9168,90.494
9169,90.494
9170,90.649
9171,90.442
9172,90.494
9173,90.494
9174,90.545
9175,90.545
9176,90.597
9177,90.649
9178,90.649
9179,90.649
9180,90.649
9181,90.597
9182,90.545
9183,90.649
9184,90.649
9185,90.545
9186,90.494
9187,90.597
9188,90.545
9189,90.545
9190,90.494
9191,90.494
9192,90.649
9193,90.597
9194,90.597
9195,90.597
9196,90.494
9197,90.597
9198,90.597
9199,90.545
9200,90.597
9201,90.545
9202,90.545
9203,90.597
9204,90.545
9205,90.597
9206,90.494
9207,90.494
9208,90.545
9209,90.597
9210,90.494
9211,90.442
9212,90.545
9213,90.597
9214,90.494
9215,90.494
9216,90.494
9217,90.494
9218,90.494
9219,90.494
9220,90.597
9221,90.494
9222,90.545
9223,90.545
9224,90.649
9225,90.597
9226,90.597
9227,90.597
9228,90.649
9229,90.597
9230,90.597
9231,90.597
9232,90.545
9233,90.649
9234,90.545
9235,90.494
9236,90.494
9237,90.545
9238,90.597
9239,90.545
9240,90.545
9241,90.494
9242,90.494
9243,90.597
9244,90.649
9245,90.545
9246,90.649
9247,90.545
9248,90.597
9249,90.545
9250,90.597
9251,90.545
9252,90.545
9253,90.494
9254,90.597
9255,90.649
9256,90.494
9257,90.494
9258,90.597
9259,90.597
9260,90.494
9261,90.494
9262,90.494
9263,90.597
9264,90.442
9265,90.494
9266,90.597
9267,90.442
9268,90.442
9269,90.494
9270,90.597
9271,90.597
9272,90.597
9273,90.545
9274,90.649
9275,90.649
9276,90.597
9277,90.494
9278,90.545
9279,90.494
9280,90.545
9281,90.545
9282,90.494
9283,90.494
9284,90.494
9285,90.494
9286,90.494
9287,90.494
9288,90.338
9289,90.545
9290,90.494
9291,90.494
9292,90.390
9293,90.494
9294,90.494
9295,90.442
9296,90.545
9297,90.494
9298,90.494
9299,90.442
9300,90.494
9301,90.494
9302,90.494
9303,90.390
9304,90.494
9305,90.545
9306,90.494
9307,90.338
9308,90.442
9309,90.494
9310,90.338
9311,90.390
9312,90.442
9313,90.390
9314,90.338
9315,90.442
9316,90.494
9317,90.494
9318,90.442
9319,90.494
9320,90.545
9321,90.545
9322,90.494
9323,90.390
9324,90.545
9325,90.494
9326,90.494
9327,90.442
9328,90.442
9329,90.442
9330,90.494
9331,90.390
9332,90.442
9333,90.442
9334,90.494
9335,90.494
9336,90.442
9337,90.494
9338,90.390
9339,90.494
9340,90.494
9341,90.494
9342,90.494
9343,90.494
9344,90.494
9345,90.494
9346,90.494
9347,90.494
9348,90.494
9349,90.390
9350,90.494
9351,90.494
9352,90.442
9353,90.338
9354,90.442
9355,90.494
9356,90.390
9357,90.338
9358,90.390
9359,90.494
9360,90.442
9361,90.442
9362,90.494
9363,90.494
9364,90.494
9365,90.494
9366,90.494
9367,90.597
9368,90.442
9369,90.442
9370,90.494
9371,90.494
9372,90.494
9373,90.390
9374,90.494
9375,90.494
9376,90.494
9377,90.390
9378,90.442
9379,90.494
9380,90.494
9381,90.390
9382,90.442
9383,90.545
9384,90.390
9385,90.494
9386,90.442
9387,90.545
9388,90.442
9389,90.494
9390,90.494
9391,90.494
9392,90.442
9393,90.494
9394,90.442
9395,90.494
9396,90.390
9397,90.442
9398,90.442
9399,90.442
9400,90.390
9401,90.494
9402,90.442
9403,90.338
9404,90.494
9405,90.494
9406,90.494
9407,90.442
9408,90.494
9409,90.494
9410,90.494
9411,90.494
9412,90.494
9413,90.597
9414,90.494
9415,90.494
9416,90.494
9417,90.494
9418,90.442
9419,90.442
9420,90.494
9421,90.494
9422,90.494
9423,90.442
9424,90.442
9425,90.494
9426,90.494
9427,90.390
9428,90.494
9429,90.494
9430,90.545
9431,90.390
9432,90.442
9433,90.494
9434,90.390
9435,90.390
9436,90.494
9437,90.494
9438,90.494
9439,90.494
9440,90.494
9441,90.494
9442,90.442
9443,90.390
9444,90.390
9445,90.338
9446,90.338
9447,90.390
9448,90.442
9449,90.390
9450,90.442
9451,90.442
9452,90.442
9453,90.338
9454,90.442
9455,90.390
9456,90.442
9457,90.286
9458,90.442
9459,90.338
9460,90.442
9461,90.338
9462,90.442
9463,90.494
9464,90.390
9465,90.442
9466,90.390
9467,90.494
9468,90.338
9469,90.390
9470,90.286
9471,90.390
9472,90.390
9473,90.286
9474,90.286
9475,90.390
9476,90.442
9477,90.286
9478,90.390
9479,90.442
9480,90.338
9481,90.286
9482,90.390
9483,90.442
9484,90.442
9485,90.286
9486,90.338
9487,90.390
9488,90.286
9489,90.286
9490,90.286
9491,90.338
9492,90.286
9493,90.286
9494,90.286
9495,90.338
9496,90.338
9497,90.338
9498,90.286
9499,90.338
9500,90.338
9501,90.390
9502,90.390
9503,90.286
9504,90.390
9505,90.338
9506,90.390
9507,90.286
9508,90.442
9509,90.442
9510,90.442
9511,90.338
9512,90.442
9513,90.494
9514,90.390
9515,90.390
9516,90.286
9517,90.442
9518,90.286
9519,90.390
9520,90.286
9521,90.390
9522,90.442
9523,90.390
9524,90.286
9525,90.494
9526,90.442
9527,90.286
9528,90.390
9529,90.442
9530,90.338
9531,90.286
9532,90.390
9533,90.338
9534,90.338
9535,90.286
9536,90.338
9537,90.390
9538,90.338
9539,90.286
9540,90.286
9541,90.338
9542,90.286
9543,90.338
9544,90.286
9545,90.338
9546,90.286
9547,90.338
9548,90.286
9549,90.286
9550,90.286
9551,90.390
9552,90.390
9553,90.286
9554,90.442
9555,90.286
9556,90.442
9557,90.390
9558,90.390
9559,90.286
9560,90.338
9561,90.286
9562,90.338
9563,90.286
9564,90.338
9565,90.338
9566,90.338
9567,90.494
9568,90.390
9569,90.442
9570,90.286
9571,90.442
9572,90.442
9573,90.338
9574,90.286
9575,90.442
9576,90.338
9577,90.338
9578,90.286
9579,90.390
9580,90.442
9581,90.286
9582,90.390
9583,90.390
9584,90.390
9585,90.286
9586,90.338
9587,90.338
9588,90.338
9589,90.286
9590,90.286
9591,90.338
9592,90.286
9593,90.286
9594,90.286
9595,90.338
9596,90.286
9597,90.442
9598,90.286
9599,90.390
9600,90.390
9601,90.338
9602,90.390
9603,90.338
9604,90.390
9605,90.390
9606,90.442
9607,90.390
9608,90.442
9609,90.286
9610,90.338
9611,90.390
9612,90.390
9613,90.338
9614,90.338
9615,90.390
9616,90.286
9617,90.390
9618,90.390
9619,90.338
9620,90.286
9621,90.442
9622,90.338
9623,90.286
9624,90.182
9625,90.442
9626,90.286
9627,90.286
9628,90.182
9629,90.338
9630,90.338
9631,90.286
9632,90.234
9633,90.286
9634,90.286
9635,90.182
9636,90.286
9637,90.286
9638,90.234
9639,90.130
9640,90.182
9641,90.234
9642,90.182
9643,90.182
9644,90.286
9645,90.234
9646,90.286
9647,90.286
9648,90.286
9649,90.286
9650,90.390
9651,90.234
9652,90.286
9653,90.286
9654,90.286
9655,90.286
9656,90.286
9657,90.234
9658,90.286
9659,90.234
9660,90.286
9661,90.286
9662,90.286
9663,90.234
9664,90.286
9665,90.234
9666,90.286
9667,90.234
9668,90.286
9669,90.286
9670,90.286
9671,90.338
9672,90.286
9673,90.286
9674,90.182
9675,90.286
9676,90.338
9677,90.286
9678,90.130
9679,90.286
9680,90.286
9681,90.182
9682,90.182
9683,90.286
9684,90.234
9685,90.130
9686,90.234
9687,90.234
9688,90.286
9689,90.234
9690,90.286
9691,90.286
9692,90.286
9693,90.286
9694,90.286
9695,90.286
9696,90.390
9697,90.286
9698,90.234
9699,90.286
9700,90.338
9701,90.390
9702,90.286
9703,90.286
9704,90.286
9705,90.338
9706,90.234
9707,90.286
9708,90.286
9709,90.234
9710,90.286
9711,90.286
9712,90.286
9713,90.234
9714,90.286
9715,90.286
9716,90.286
9717,90.234
9718,90.286
9719,90.286
9720,90.182
9721,90.286
9722,90.234
9723,90.286
9724,90.130
9725,90.286
9726,90.286
9727,90.182
9728,90.078
9729,90.286
9730,90.286
9731,90.234
9732,90.182
9733,90.234
9734,90.286
9735,90.182
9736,90.286
9737,90.234
9738,90.286
9739,90.234
9740,90.286
9741,90.286
9742,90.338
9743,90.234
9744,90.234
9745,90.286
9746,90.390
9747,90.286
9748,90.286
9749,90.286
9750,90.286
9751,90.286
9752,90.234
9753,90.286
9754,90.286
9755,90.286
9756,90.130
9757,90.286
9758,90.286
9759,90.234
9760,90.286
9761,90.286
9762,90.286
9763,90.234
9764,90.286
9765,90.286
9766,90.286
9767,90.234
9768,90.234
9769,90.234
9770,90.130
9771,90.182
9772,90.286
9773,90.234
9774,90.130
9775,90.234
9776,90.234
9777,90.234
9778,90.130
9779,90.286
9780,90.234
9781,90.234
9782,90.234
9783,90.286
9784,90.286
9785,90.234
9786,90.234
9787,90.234
9788,90.286
9789,90.286
9790,90.286
9791,90.130
9792,90.286
9793,90.182
9794,90.234
9795,90.182
9796,90.286
9797,90.286
9798,90.130
9799,90.182
9800,90.234
9801,90.234
9802,90.078
9803,90.182
9804,90.234
9805,90.182
9806,90.078
9807,90.234
9808,90.234
9809,90.182
9810,90.182
9811,90.286
9812,90.182
9813,90.234
9814,90.130
9815,90.130
9816,90.130
9817,90.130
9818,90.130
9819,90.130
9820,90.078
9821,90.078
9822,90.234
9823,90.130
9824,90.078
9825,90.130
9826,90.234
9827,90.182
9828,90.078
9829,90.182
9830,90.130
9831,90.182
9832,90.182
9833,90.234
9834,90.130
9835,90.234
9836,90.130
9837,90.234
9838,90.286
9839,90.130
9840,90.234
9841,90.182
9842,90.286
9843,90.286
9844,90.182
9845,90.130
9846,90.286
9847,90.234
9848,90.182
9849,90.130
9850,90.182
9851,90.234
9852,90.130
9853,90.234
9854,90.286
9855,90.286
9856,90.130
9857,90.286
9858,90.286
9859,90.286
9860,90.130
9861,90.182
9862,90.182
9863,90.182
9864,90.078
9865,90.182
9866,90.130
9867,90.130
9868,90.234
9869,90.078
9870,90.078
9871,90.078
9872,90.182
9873,90.078
9874,90.078
9875,90.078
9876,90.234
9877,90.182
9878,90.130
9879,90.182
9880,90.182
9881,90.182
9882,90.182
9883,90.234
9884,90.182
9885,90.234
9886,90.234
9887,90.182
9888,90.234
9889,90.078
9890,90.182
9891,90.078
9892,90.286
9893,90.234
9894,90.182
9895,90.078
9896,90.182
9897,90.286
9898,90.234
9899,90.130
9900,90.234
9901,90.286
9902,90.130
9903,90.234
9904,90.286
9905,90.234
9906,90.130
9907,90.234
9908,90.286
9909,90.182
9910,90.078
9911,90.182
9912,90.130
9913,90.182
9914,90.078
9915,90.130
9916,90.078
9917,90.130
9918,90.234
9919,90.078
9920,90.078
9921,90.130
9922,90.286
9923,90.078
9924,90.078
9925,90.130
9926,90.130
9927,90.182
9928,90.130
9929,90.182
9930,90.234
9931,90.234
9932,90.286
9933,90.286
9934,90.130
9935,90.130
9936,90.130
9937,90.130
9938,90.182
9939,90.286
9940,90.182
9941,90.078
9942,90.234
9943,90.286
9944,90.130
9945,90.078
9946,90.286
9947,90.234
9948,90.182
9949,90.130
9950,90.286
9951,90.234
9952,90.078
9953,90.078
9954,90.182
9955,90.130
9956,89.974
9957,90.078
9958,90.078
9959,90.078
9960,89.870
9961,90.026
9962,89.974
9963,90.078
9964,90.026
9965,89.974
9966,89.974
9967,89.974
9968,90.026
9969,89.922
9970,89.974
9971,90.026
9972,90.078
9973,89.974
9974,90.078
9975,90.078
9976,90.130
9977,90.026
9978,90.078
9979,90.078
9980,90.078
9981,90.026
9982,90.026
9983,89.974
9984,89.974
9985,89.922
9986,90.026
9987,89.974
9988,90.026
9989,90.130
9990,90.026
9991,90.026
9992,90.078
9993,90.078
9994,90.026
9995,89.974
9996,90.078
9997,90.078
9998,90.078
9999,89.974
10000,90.130
10001,90.078
10002,89.974
10003,90.026
10004,90.078
10005,90.078
10006,89.870
10007,90.026
10008,89.974
10009,90.026
10010,89.870
10011,89.974
10012,89.870
10013,90.026
10014,89.974
10015,90.026
10016,89.922
10017,90.026
10018,90.078
10019,90.026
10020,90.078
10021,90.078
10022,90.078
10023,89.974
10024,90.078
10025,90.078
10026,90.078
10027,89.974
10028,90.026
10029,90.078
10030,89.974
10031,89.870
10032,90.078
10033,90.026
10034,89.922
10035,90.078
10036,90.078
10037,89.974
10038,90.026
10039,90.078
10040,89.974
10041,89.922
10042,90.078
10043,90.130
10044,90.026
10045,89.974
10046,90.078
10047,90.130
10048,90.026
10049,89.922
10050,90.078
10051,89.974
10052,89.974
10053,89.922
10054,89.974
10055,89.974
10056,89.870
10057,89.974
10058,89.974
10059,90.026
10060,90.078
10061,89.974
10062,89.922
10063,90.078
10064,90.078
10065,89.974
10066,89.974
10067,90.078
10068,90.130
10069,90.078
10070,90.026
10071,90.130
10072,90.078
10073,90.026
10074,90.130
10075,90.078
10076,90.078
10077,89.974
10078,90.078
10079,90.026
10080,90.078
10081,89.870
10082,90.078
10083,89.974
10084,90.078
10085,90.078
10086,90.026
10087,89.974
10088,90.026
10089,90.182
10090,90.078
10091,90.026
10092,90.078
10093,90.078
10094,90.026
10095,89.974
10096,89.974
10097,90.078
10098,89.974
10099,89.922
10100,90.078
10101,89.974
10102,89.818
10103,89.922
10104,90.026
10105,90.026
10106,89.922
10107,89.922
10108,89.974
10109,90.078
10110,90.078
10111,89.974
10112,89.922
10113,90.026
10114,90.078
10115,90.026
10116,89.922
10117,90.078
10118,90.078
10119,89.974
10120,89.974
10121,90.078
10122,90.078
10123,89.870
10124,89.974
10125,89.974
10126,90.026
10127,89.766
10128,89.974
10129,89.922
10130,89.922
10131,89.870
10132,89.974
10133,89.922
10134,89.922
10135,89.974
10136,89.974
10137,89.922
10138,89.870
10139,90.078
10140,89.922
10141,89.870
10142,89.870
10143,90.026
10144,89.922
10145,89.870
10146,89.870
10147,89.974
10148,89.870
10149,89.870
10150,89.870
10151,89.974
10152,89.766
10153,89.870
10154,89.922
10155,89.870
10156,89.870
10157,89.818
10158,89.870
10159,89.922
10160,89.922
10161,89.870
10162,89.870
10163,89.922
10164,89.974
10165,89.922
10166,89.870
10167,90.026
10168,90.026
10169,89.870
10170,89.870
10171,89.974
10172,89.870
10173,89.766
10174,89.922
10175,89.922
10176,89.870
10177,89.766
10178,89.974
10179,89.922
10180,89.922
10181,89.870
10182,89.974
10183,89.870
10184,89.922
10185,89.870
10186,89.974
10187,89.870
10188,89.922
10189,89.974
10190,89.922
10191,89.870
10192,89.818
10193,89.974
10194,89.922
10195,89.870
10196,89.870
10197,89.870
10198,89.714
10199,89.870
10200,89.870
10201,89.870
10202,89.818
10203,89.818
10204,89.870
10205,89.870
10206,89.922
10207,89.870
10208,89.870
10209,89.974
10210,90.026
10211,89.870
10212,89.870
10213,89.974
10214,90.026
10215,89.870
10216,89.766
10217,90.026
10218,89.974
10219,89.870
10220,89.818
10221,90.026
10222,89.922
10223,89.766
10224,89.870
10225,89.974
10226,89.974
10227,89.818
10228,89.974
10229,89.974
10230,89.922
10231,89.922
10232,89.974
10233,89.870
10234,89.922
10235,89.974
10236,89.974
10237,89.922
10238,89.922
10239,89.974
10240,89.922
10241,89.870
10242,89.870
10243,90.026
10244,89.818
10245,89.870
10246,89.870
10247,89.922
10248,89.662
10249,89.870
10250,89.818
10251,89.870
10252,89.870
10253,89.870
10254,89.870
10255,89.922
10256,89.974
10257,89.870
10258,89.870
10259,89.974
10260,90.078
10261,89.870
10262,89.870
10263,89.974
10264,90.026
10265,89.870
10266,89.818
10267,90.026
10268,89.974
10269,89.818
10270,89.870
10271,90.026
10272,89.922
10273,89.818
10274,89.870
10275,89.974
10276,89.974
10277,89.922
10278,89.922
10279,89.974
10280,89.922
10281,89.922
10282,89.922
10283,89.870
10284,89.922
10285,89.870
10286,89.870
10287,89.818
10288,89.818
10289,89.818
10290,89.766
10291,89.714
10292,89.818
10293,89.766
10294,89.610
10295,89.662
10296,89.662
10297,89.714
10298,89.662
10299,89.662
10300,89.662
10301,89.714
10302,89.714
10303,89.714
10304,89.662
10305,89.766
10306,89.818
10307,89.714
10308,89.766
10309,89.714
10310,89.870
10311,89.714
10312,89.662
10313,89.714
10314,89.818
10315,89.662
10316,89.662
10317,89.766
10318,89.714
10319,89.558
10320,89.662
10321,89.766
10322,89.714
10323,89.662
10324,89.662
10325,89.766
10326,89.714
10327,89.714
10328,89.662
10329,89.714
10330,89.714
10331,89.766
10332,89.714
10333,89.714
10334,89.714
10335,89.766
10336,89.714
10337,89.662
10338,89.714
10339,89.662
10340,89.610
10341,89.662
10342,89.662
10343,89.662
10344,89.455
10345,89.662
10346,89.662
10347,89.714
10348,89.662
10349,89.766
10350,89.714
10351,89.766
10352,89.714
10353,89.766
10354,89.662
10355,89.766
10356,89.870
10357,89.766
10358,89.662
10359,89.766
10360,89.870
10361,89.714
10362,89.714
10363,89.662
10364,89.818
10365,89.610
10366,89.714
10367,89.662
10368,89.714
10369,89.610
10370,89.662
10371,89.766
10372,89.714
10373,89.714
10374,89.662
10375,89.714
10376,89.766
10377,89.766
10378,89.662
10379,89.818
10380,89.818
10381,89.818
10382,89.662
10383,89.662
10384,89.714
10385,89.766
10386,89.662
10387,89.662
10388,89.714
10389,89.714
10390,89.506
10391,89.662
10392,89.714
10393,89.662
10394,89.662
10395,89.714
10396,89.714
10397,89.714
10398,89.714
10399,89.766
10400,89.662
10401,89.766
10402,89.766
10403,89.818
10404,89.662
10405,89.766
10406,89.870
10407,89.766
10408,89.662
10409,89.662
10410,89.818
10411,89.714
10412,89.662
10413,89.662
10414,89.870
10415,89.610
10416,89.766
10417,89.714
10418,89.818
10419,89.714
10420,89.714
10421,89.714
10422,89.714
10423,89.766
10424,89.714
10425,89.714
10426,89.766
10427,89.766
10428,89.662
10429,89.662
10430,89.662
10431,89.766
10432,89.610
10433,89.662
10434,89.714
10435,89.818
10436,89.610
10437,89.662
10438,89.714
10439,89.662
10440,89.558
10441,89.662
10442,89.766
10443,89.662
10444,89.662
10445,89.662
10446,89.766
10447,89.714
10448,89.766
10449,89.870
10450,89.714
10451,89.714
10452,89.662
10453,89.662
10454,89.558
10455,89.610
10456,89.610
10457,89.558
10458,89.455
10459,89.506
10460,89.662
10461,89.455
10462,89.455
10463,89.558
10464,89.662
10465,89.455
10466,89.558
10467,89.558
10468,89.610
10469,89.506
10470,89.558
10471,89.558
10472,89.610
10473,89.610
10474,89.455
10475,89.558
10476,89.610
10477,89.610
10478,89.455
10479,89.558
10480,89.558
10481,89.610
10482,89.455
10483,89.455
10484,89.506
10485,89.506
10486,89.299
10487,89.455
10488,89.455
10489,89.506
10490,89.455
10491,89.455
10492,89.610
10493,89.506
10494,89.506
10495,89.506
10496,89.610
10497,89.558
10498,89.506
10499,89.610
10500,89.506
10501,89.662
10502,89.506
10503,89.506
10504,89.506
10505,89.558
10506,89.506
10507,89.506
10508,89.455
10509,89.506
10510,89.506
10511,89.455
10512,89.455
10513,89.455
10514,89.610
10515,89.506
10516,89.558
10517,89.506
10518,89.662
10519,89.558
10520,89.558
10521,89.506
10522,89.610
10523,89.610
10524,89.506
10525,89.506
10526,89.506
10527,89.610
10528,89.455
10529,89.455
10530,89.455
10531,89.610
10532,89.351
10533,89.455
10534,89.506
10535,89.662
10536,89.351
10537,89.558
10538,89.610
10539,89.610
10540,89.558
10541,89.558
10542,89.662
10543,89.610
10544,89.610
10545,89.558
10546,89.610
10547,89.558
10548,89.662
10549,89.610
10550,89.558
10551,89.610
10552,89.610
10553,89.558
10554,89.506
10555,89.610
10556,89.506
10557,89.455
10558,89.455
10559,89.558
10560,89.455
10561,89.558
10562,89.558
10563,89.610
10564,89.610
10565,89.558
10566,89.610
10567,89.558
10568,89.558
10569,89.610
10570,89.506
10571,89.455
10572,89.558
10573,89.610
10574,89.506
10575,89.403
10576,89.455
10577,89.610
10578,89.455
10579,89.455
10580,89.506
10581,89.662
10582,89.351
10583,89.506
10584,89.506
10585,89.662
10586,89.455
10587,89.558
10588,89.610
10589,89.610
10590,89.558
10591,89.558
10592,89.662
10593,89.662
10594,89.662
10595,89.558
10596,89.610
10597,89.610
10598,89.662
10599,89.455
10600,89.558
10601,89.610
10602,89.610
10603,89.558
10604,89.455
10605,89.558
10606,89.610
10607,89.455
10608,89.506
10609,89.558
10610,89.558
10611,89.558
10612,89.558
10613,89.662
10614,89.610
10615,89.506
10616,89.558
10617,89.506
10618,89.558
10619,89.455
10620,89.455
10621,89.351
10622,89.455
10623,89.455
10624,89.299
10625,89.247
10626,89.403
10627,89.455
10628,89.247
10629,89.247
10630,89.351
10631,89.403
10632,89.195
10633,89.299
10634,89.299
10635,89.351
10636,89.247
10637,89.403
10638,89.351
10639,89.403
10640,89.351
10641,89.351
10642,89.403
10643,89.455
10644,89.403
10645,89.299
10646,89.351
10647,89.299
10648,89.455
10649,89.299
10650,89.299
10651,89.403
10652,89.455
10653,89.247
10654,89.351
10655,89.455
10656,89.455
10657,89.455
10658,89.351
10659,89.403
10660,89.403
10661,89.403
10662,89.299
10663,89.455
10664,89.351
10665,89.351
10666,89.351
10667,89.351
10668,89.299
10669,89.403
10670,89.403
10671,89.247
10672,89.351
10673,89.351
10674,89.247
10675,89.247
10676,89.299
10677,89.403
10678,89.143
10679,89.247
10680,89.299
10681,89.455
10682,89.299
10683,89.299
10684,89.455
10685,89.455
10686,89.403
10687,89.351
10688,89.403
10689,89.455
10690,89.351
10691,89.299
10692,89.403
10693,89.455
10694,89.403
10695,89.247
10696,89.403
10697,89.403
10698,89.455
10699,89.247
10700,89.403
10701,89.403
10702,89.455
10703,89.247
10704,89.403
10705,89.403
10706,89.403
10707,89.403
10708,89.351
10709,89.455
10710,89.351
10711,89.403
10712,89.403
10713,89.403
10714,89.403
10715,89.403
10716,89.403
10717,89.403
10718,89.299
10719,89.351
10720,89.299
10721,89.247
10722,89.351
10723,89.403
10724,89.195
10725,89.247
10726,89.351
10727,89.403
10728,89.351
10729,89.351
10730,89.455
10731,89.455
10732,89.455
10733,89.403
10734,89.351
10735,89.455
10736,89.351
10737,89.351
10738,89.247
10739,89.455
10740,89.403
10741,89.299
10742,89.351
10743,89.455
10744,89.455
10745,89.299
10746,89.403
10747,89.455
10748,89.455
10749,89.195
10750,89.403
10751,89.403
10752,89.455
10753,89.299
10754,89.403
10755,89.403
10756,89.455
10757,89.351
10758,89.455
10759,89.455
10760,89.403
10761,89.455
10762,89.299
10763,89.403
10764,89.299
10765,89.403
10766,89.299
10767,89.299
10768,89.299
10769,89.403
10770,89.247
10771,89.247
10772,89.351
10773,89.403
10774,89.247
10775,89.299
10776,89.403
10777,89.403
10778,89.403
10779,89.299
10780,89.403
10781,89.403
10782,89.351
10783,89.299
10784,89.403
10785,89.403
10786,89.247
10787,89.247
10788,89.195
10789,89.299
10790,89.247
10791,89.247
10792,89.143
10793,89.299
10794,89.247
10795,89.143
10796,89.247
10797,89.299
10798,89.247
10799,89.091
10800,89.195
10801,89.247
10802,89.247
10803,89.091
10804,89.247
10805,89.247
10806,89.247
10807,89.091
10808,89.247
10809,89.247
10810,89.195
10811,89.143
10812,89.143
10813,89.143
10814,89.143
10815,89.247
10816,89.091
10817,89.143
10818,89.091
10819,89.195
10820,89.039
10821,89.143
10822,89.247
10823,89.247
10824,89.247
10825,89.195
10826,89.247
10827,89.247
10828,89.247
10829,89.143
10830,89.195
10831,89.143
10832,89.195
10833,89.143
10834,89.195
10835,89.195
10836,89.247
10837,89.091
10838,89.091
10839,89.247
10840,89.247
10841,89.143
10842,89.091
10843,89.299
10844,89.247
10845,89.039
10846,89.039
10847,89.247
10848,89.247
10849,89.143
10850,89.143
10851,89.195
10852,89.247
10853,89.091
10854,89.247
10855,89.247
10856,89.195
10857,89.039
10858,89.091
10859,89.195
10860,89.143
10861,89.039
10862,89.091
10863,89.247
10864,89.143
10865,89.247
10866,89.091
10867,89.247
10868,89.247
10869,89.299
10870,89.039
10871,89.247
10872,89.247
10873,89.299
10874,89.247
10875,89.195
10876,89.247
10877,89.247
10878,89.195
10879,89.143
10880,89.247
10881,89.143
10882,89.195
10883,89.195
10884,89.143
10885,89.143
10886,89.247
10887,89.195
10888,89.091
10889,89.247
10890,89.247
10891,89.091
10892,89.091
10893,89.247
10894,89.299
10895,89.091
10896,89.091
10897,89.247
10898,89.247
10899,89.143
10900,89.143
10901,89.143
10902,89.247
10903,89.039
10904,89.143
10905,89.143
10906,89.195
10907,89.039
10908,89.247
10909,89.143
10910,89.195
10911,89.091
10912,89.195
10913,89.195
10914,89.247
10915,89.247
10916,89.039
10917,89.195
10918,89.247
10919,89.351
10920,89.143
10921,89.247
10922,89.247
10923,89.299
10924,89.247
10925,89.247
10926,89.195
10927,89.247
10928,89.195
10929,89.143
10930,89.195
10931,89.143
10932,89.247
10933,89.143
10934,89.195
10935,89.143
10936,89.247
10937,89.195
10938,89.195
10939,89.247
10940,89.299
10941,89.091
10942,89.091
10943,89.247
10944,89.299
10945,89.195
10946,89.091
10947,89.247
10948,89.247
10949,89.143
10950,89.091
10951,89.143
10952,89.195
10953,89.039
10954,89.091
10955,89.143
10956,89.091
10957,89.039
10958,89.091
10959,89.039
10960,89.091
10961,89.039
10962,89.091
10963,89.039
10964,89.143
10965,89.143
10966,88.987
10967,89.091
10968,89.143
10969,89.143
10970,89.143
10971,89.143
10972,89.143
10973,89.195
10974,89.091
10975,89.143
10976,89.091
10977,89.091
10978,89.091
10979,89.143
10980,89.091
10981,89.039
10982,89.143
10983,89.143
10984,89.143
10985,89.039
10986,89.247
10987,89.039
10988,89.143
10989,89.143
10990,89.195
10991,89.039
10992,89.039
10993,89.143
10994,89.143
10995,89.143
10996,88.987
10997,89.143
10998,89.143
10999,89.039
11000,88.987
11001,89.091
11002,89.143
11003,89.039
11004,89.039
11005,89.039
11006,89.143
11007,89.091
11008,89.039
11009,89.039
11010,89.091
11011,89.091
11012,88.987
11013,89.039
11014,89.143
11015,89.195
11016,89.143
11017,89.195
11018,89.195
11019,89.247
11020,89.091
11021,89.091
11022,89.143
11023,89.143
11024,89.039
11025,89.143
11026,89.143
11027,89.091
11028,89.091
11029,89.143
11030,89.195
11031,89.143
11032,89.143
11033,89.143
11034,89.143
11035,89.039
11036,89.195
11037,89.039
11038,89.039
11039,89.091
11040,89.247
11041,89.091
11042,89.039
11043,89.091
11044,89.195
11045,89.039
11046,89.039
11047,89.143
11048,89.143
11049,89.039
11050,89.039
11051,89.039
11052,89.091
11053,89.039
11054,89.039
11055,89.039
11056,89.143
11057,89.091
11058,89.091
11059,89.039
11060,89.247
11061,89.143
11062,88.987
11063,89.039
11064,89.195
11065,89.143
11066,89.039
11067,88.987
11068,89.143
11069,89.143
11070,89.039
11071,89.143
11072,89.039
11073,89.091
11074,89.039
11075,89.143
11076,89.143
11077,89.195
11078,89.091
11079,89.143
11080,89.143
11081,89.091
11082,89.143
11083,88.987
11084,89.143
11085,89.039
11086,89.195
11087,89.039
11088,89.039
11089,89.039
11090,89.247
11091,89.039
11092,88.987
11093,89.039
11094,89.195
11095,89.039
11096,88.987
11097,89.039
11098,89.039
11099,89.039
11100,89.039
11101,89.143
11102,89.091
11103,89.091
11104,89.143
11105,89.143
11106,89.195
11107,89.143
11108,89.039
11109,89.039
11110,89.195
11111,89.143
11112,89.039
11113,88.987
11114,89.143
11115,89.195
11116,89.039
11117,88.987
11118,89.143
11119,89.091
11120,88.987
11121,88.935
11122,89.039
11123,89.039
11124,88.883
11125,88.987
11126,89.039
11127,88.935
11128,88.883
11129,88.935
11130,89.039
11131,88.987
11132,88.935
11133,88.831
11134,88.987
11135,88.935
11136,89.039
11137,88.935
11138,88.935
11139,88.935
11140,89.039
11141,88.831
11142,88.883
11143,88.831
11144,88.935
11145,88.831
11146,88.831
11147,88.883
11148,88.935
11149,88.883
11150,88.883
11151,88.987
11152,88.987
11153,88.935
11154,88.883
11155,88.935
11156,88.935
11157,89.039
11158,88.831
11159,88.883
11160,89.039
11161,89.039
11162,88.831
11163,88.831
11164,88.987
11165,88.987
11166,88.883
11167,88.831
11168,88.987
11169,88.987
11170,88.883
11171,88.831
11172,88.987
11173,88.935
11174,88.831
11175,88.987
11176,88.987
11177,88.987
11178,88.831
11179,88.831
11180,88.935
11181,88.935
11182,88.883
11183,88.935
11184,88.935
11185,88.831
11186,88.935
11187,88.831
11188,88.831
11189,88.883
11190,88.987
11191,88.831
11192,88.831
11193,88.883
11194,88.987
11195,88.935
11196,88.935
11197,88.935
11198,88.987
11199,89.039
11200,88.935
11201,89.039
11202,88.935
11203,89.039
11204,88.831
11205,88.987
11206,88.935
11207,89.039
11208,88.935
11209,88.935
11210,88.987
11211,88.987
11212,88.883
11213,88.831
11214,88.935
11215,89.039
11216,88.831
11217,88.831
11218,88.987
11219,88.987
11220,88.883
11221,88.883
11222,89.039
11223,88.987
11224,88.883
11225,88.935
11226,88.935
11227,88.935
11228,88.831
11229,88.831
11230,88.831
11231,88.935
11232,88.831
11233,88.883
11234,88.831
11235,88.883
11236,88.987
11237,88.831
11238,88.831
11239,88.935
11240,88.987
11241,88.883
11242,88.883
11243,88.935
11244,88.987
11245,88.935
11246,88.987
11247,88.987
11248,88.987
11249,88.935
11250,88.883
11251,89.039
11252,88.987
11253,88.987
11254,88.831
11255,88.935
11256,88.935
11257,89.039
11258,88.883
11259,88.831
11260,88.883
11261,88.987
11262,88.883
11263,88.831
11264,88.935
11265,89.039
11266,88.883
11267,88.831
11268,89.039
11269,88.987
11270,88.883
11271,88.883
11272,89.039
11273,88.987
11274,88.831
11275,88.831
11276,88.935
11277,88.987
11278,88.883
11279,88.883
11280,88.831
11281,88.935
11282,88.883
11283,88.935
11284,88.831
11285,88.883
11286,88.831
11287,88.779
11288,88.727
11289,88.831
11290,88.831
11291,88.727
11292,88.727
11293,88.779
11294,88.831
11295,88.675
11296,88.831
11297,88.831
11298,88.831
11299,88.779
11300,88.675
11301,88.779
11302,88.675
11303,88.779
11304,88.727
11305,88.727
11306,88.727
11307,88.831
11308,88.779
11309,88.675
11310,88.727
11311,88.831
11312,88.779
11313,88.675
11314,88.727
11315,88.831
11316,88.779
11317,88.727
11318,88.831
11319,88.831
11320,88.727
11321,88.623
11322,88.831
11323,88.727
11324,88.675
11325,88.623
11326,88.779
11327,88.779
11328,88.675
11329,88.675
11330,88.675
11331,88.727
11332,88.727
11333,88.727
11334,88.623
11335,88.779
11336,88.779
11337,88.727
11338,88.675
11339,88.831
11340,88.779
11341,88.675
11342,88.831
11343,88.831
11344,88.831
11345,88.727
11346,88.727
11347,88.831
11348,88.831
11349,88.675
11350,88.727
11351,88.727
11352,88.727
11353,88.779
11354,88.727
11355,88.727
11356,88.727
11357,88.831
11358,88.779
11359,88.675
11360,88.779
11361,88.883
11362,88.779
11363,88.727
11364,88.831
11365,88.831
11366,88.779
11367,88.727
11368,88.831
11369,88.779
11370,88.727
11371,88.571
11372,88.831
11373,88.779
11374,88.727
11375,88.623
11376,88.727
11377,88.727
11378,88.727
11379,88.623
11380,88.675
11381,88.779
11382,88.727
11383,88.675
11384,88.623
11385,88.831
11386,88.831
11387,88.779
11388,88.727
11389,88.831
11390,88.831
11391,88.727
11392,88.831
11393,88.831
11394,88.831
11395,88.727
11396,88.727
11397,88.779
11398,88.779
11399,88.675
11400,88.831
11401,88.779
11402,88.779
11403,88.779
11404,88.727
11405,88.779
11406,88.727
11407,88.831
11408,88.727
11409,88.675
11410,88.779
11411,88.935
11412,88.831
11413,88.727
11414,88.727
11415,88.883
11416,88.779
11417,88.675
11418,88.779
11419,88.831
11420,88.727
11421,88.571
11422,88.727
11423,88.675
11424,88.727
11425,88.675
11426,88.675
11427,88.727
11428,88.779
11429,88.727
11430,88.675
11431,88.831
11432,88.831
11433,88.831
11434,88.675
11435,88.831
11436,88.831
11437,88.831
11438,88.727
11439,88.831
11440,88.831
11441,88.779
11442,88.623
11443,88.883
11444,88.831
11445,88.727
11446,88.727
11447,88.831
11448,88.831
11449,88.727
11450,88.727
11451,88.727
11452,88.727
11453,88.727
11454,88.675
11455,88.623
11456,88.675
11457,88.727
11458,88.779
11459,88.623
11460,88.675
11461,88.779
11462,88.623
11463,88.623
11464,88.623
11465,88.675
11466,88.571
11467,88.468
11468,88.571
11469,88.623
11470,88.623
11471,88.571
11472,88.623
11473,88.571
11474,88.623
11475,88.571
11476,88.623
11477,88.623
11478,88.727
11479,88.623
11480,88.623
11481,88.675
11482,88.779
11483,88.623
11484,88.623
11485,88.675
11486,88.779
11487,88.623
11488,88.468
11489,88.727
11490,88.623
11491,88.623
11492,88.416
11493,88.675
11494,88.623
11495,88.519
11496,88.623
11497,88.623
11498,88.623
11499,88.623
11500,88.675
11501,88.623
11502,88.623
11503,88.623
11504,88.727
11505,88.623
11506,88.675
11507,88.727
11508,88.623
11509,88.571
11510,88.623
11511,88.623
11512,88.571
11513,88.571
11514,88.623
11515,88.623
11516,88.519
11517,88.468
11518,88.623
11519,88.623
11520,88.623
11521,88.623
11522,88.571
11523,88.623
11524,88.623
11525,88.623
11526,88.571
11527,88.623
11528,88.727
11529,88.623
11530,88.571
11531,88.623
11532,88.779
11533,88.623
11534,88.571
11535,88.727
11536,88.727
11537,88.623
11538,88.519
11539,88.779
11540,88.623
11541,88.623
11542,88.571
11543,88.727
11544,88.675
11545,88.623
11546,88.571
11547,88.623
11548,88.675
11549,88.675
11550,88.623
11551,88.675
11552,88.675
11553,88.675
11554,88.675
11555,88.623
11556,88.675
11557,88.623
11558,88.623
11559,88.571
11560,88.623
11561,88.623
11562,88.623
11563,88.468
11564,88.623
11565,88.623
11566,88.571
11567,88.623
11568,88.571
11569,88.623
11570,88.623
11571,88.623
11572,88.571
11573,88.623
11574,88.727
11575,88.571
11576,88.623
11577,88.623
11578,88.779
11579,88.623
11580,88.623
11581,88.623
11582,88.831
11583,88.623
11584,88.571
11585,88.623
11586,88.727
11587,88.623
11588,88.468
11589,88.727
11590,88.675
11591,88.571
11592,88.623
11593,88.779
11594,88.675
11595,88.623
11596,88.571
11597,88.675
11598,88.727
11599,88.675
11600,88.623
11601,88.623
11602,88.675
11603,88.623
11604,88.675
11605,88.623
11606,88.675
11607,88.623
11608,88.623
11609,88.519
11610,88.623
11611,88.623
11612,88.571
11613,88.519
11614,88.623
11615,88.623
11616,88.623
11617,88.623
11618,88.571
11619,88.623
11620,88.468
11621,88.623
11622,88.468
11623,88.571
11624,88.623
11625,88.519
11626,88.416
11627,88.468
11628,88.571
11629,88.416
11630,88.416
11631,88.416
11632,88.571
11633,88.468
11634,88.260
11635,88.468
11636,88.571
11637,88.468
11638,88.416
11639,88.468
11640,88.519
11641,88.416
11642,88.416
11643,88.571
11644,88.468
11645,88.468
11646,88.416
11647,88.468
11648,88.468
11649,88.519
11650,88.416
11651,88.416
11652,88.468
11653,88.416
11654,88.468
11655,88.416
11656,88.416
11657,88.468
11658,88.468
11659,88.260
11660,88.416
11661,88.364
11662,88.416
11663,88.416
11664,88.468
11665,88.416
11666,88.416
11667,88.416
11668,88.416
11669,88.468
11670,88.468
11671,88.519
11672,88.416
11673,88.468
11674,88.519
11675,88.519
11676,88.416
11677,88.416
11678,88.519
11679,88.468
11680,88.416
11681,88.416
11682,88.571
11683,88.416
11684,88.312
11685,88.416
11686,88.468
11687,88.416
11688,88.416
11689,88.416
11690,88.416
11691,88.416
11692,88.416
11693,88.416
11694,88.468
11695,88.468
11696,88.416
11697,88.468
11698,88.416
11699,88.519
11700,88.364
11701,88.416
11702,88.468
11703,88.416
11704,88.416
11705,88.208
11706,88.416
11707,88.416
11708,88.416
11709,88.312
11710,88.468
11711,88.416
11712,88.416
11713,88.416
11714,88.468
11715,88.519
11716,88.416
11717,88.468
11718,88.468
11719,88.468
11720,88.468
11721,88.519
11722,88.468
11723,88.468
11724,88.468
11725,88.416
11726,88.312
11727,88.468
11728,88.468
11729,88.416
11730,88.260
11731,88.416
11732,88.519
11733,88.416
11734,88.416
11735,88.416
11736,88.468
11737,88.468
11738,88.416
11739,88.416
11740,88.416
11741,88.416
11742,88.416
11743,88.416
11744,88.468
11745,88.519
11746,88.416
11747,88.416
11748,88.519
11749,88.468
11750,88.364
11751,88.364
11752,88.416
11753,88.468
11754,88.312
11755,88.208
11756,88.416
11757,88.416
11758,88.416
11759,88.364
11760,88.416
11761,88.519
11762,88.416
11763,88.416
11764,88.571
11765,88.416
11766,88.468
11767,88.416
11768,88.468
11769,88.416
11770,88.468
11771,88.468
11772,88.416
11773,88.519
11774,88.468
11775,88.468
11776,88.364
11777,88.416
11778,88.416
11779,88.416
11780,88.260
11781,88.416
11782,88.468
11783,88.416
11784,88.416
11785,88.416
11786,88.468
11787,88.312
11788,88.364
11789,88.208
11790,88.364
11791,88.312
11792,88.312
11793,88.208
11794,88.260
11795,88.364
11796,88.208
11797,88.208
11798,88.312
11799,88.312
11800,88.156
11801,88.052
11802,88.208
11803,88.208
11804,88.156
11805,88.156
11806,88.260
11807,88.260
11808,88.208
11809,88.208
11810,88.364
11811,88.260
11812,88.260
11813,88.208
11814,88.364
11815,88.260
11816,88.260
11817,88.208
11818,88.260
11819,88.260
11820,88.312
11821,88.312
11822,88.208
11823,88.312
11824,88.260
11825,88.364
11826,88.052
11827,88.260
11828,88.260
11829,88.260
11830,88.208
11831,88.208
11832,88.260
11833,88.208
11834,88.312
11835,88.312
11836,88.312
11837,88.260
11838,88.260
11839,88.260
11840,88.260
11841,88.312
11842,88.208
11843,88.208
11844,88.312
11845,88.364
11846,88.208
11847,88.156
11848,88.208
11849,88.260
11850,88.156
11851,88.052
11852,88.156
11853,88.260
11854,88.156
11855,88.208
11856,88.260
11857,88.260
11858,88.208
11859,88.260
11860,88.312
11861,88.260
11862,88.208
11863,88.260
11864,88.312
11865,88.312
11866,88.312
11867,88.260
11868,88.260
11869,88.312
11870,88.312
11871,88.208
11872,88.156
11873,88.260
11874,88.260
11875,88.260
11876,88.156
11877,88.260
11878,88.208
11879,88.260
11880,88.208
11881,88.312
11882,88.208
11883,88.260
11884,88.260
11885,88.260
11886,88.260
11887,88.260
11888,88.260
11889,88.208
11890,88.260
11891,88.208
11892,88.260
11893,88.156
11894,88.260
11895,88.260
11896,88.156
11897,88.000
11898,88.260
11899,88.312
11900,88.208
11901,88.208
11902,88.208
11903,88.312
11904,88.208
11905,88.208
11906,88.312
11907,88.312
11908,88.208
11909,88.260
11910,88.312
11911,88.364
11912,88.260
11913,88.260
11914,88.312
11915,88.208
11916,88.260
11917,88.156
11918,88.208
11919,88.260
11920,88.260
11921,88.208
11922,88.156
11923,88.260
11924,88.312
11925,88.260
11926,88.260
11927,88.312
11928,88.260
11929,88.312
11930,88.260
11931,88.312
11932,88.208
11933,88.312
11934,88.260
11935,88.312
11936,88.208
11937,88.208
11938,88.208
11939,88.156
11940,88.260
11941,88.260
11942,88.208
11943,88.052
11944,88.260
11945,88.260
11946,88.156
11947,88.000
11948,88.260
11949,88.260
11950,88.208
11951,88.156
11952,88.260
11953,88.312
11954,88.208
11955,88.364
11956,88.312
11957,88.416
11958,88.364
11959,88.364
11960,88.312
11961,88.416
11962,88.364
11963,88.312
11964,88.364
11965,88.364
11966,88.416
11967,88.312
11968,88.208
11969,88.416
11970,88.416
11971,88.260
11972,88.260
11973,88.416
11974,88.416
11975,88.312
11976,88.416
11977,88.364
11978,88.416
11979,88.416
11980,88.364
11981,88.364
11982,88.312
11983,88.364
11984,88.364
11985,88.416
11986,88.312
11987,88.416
11988,88.364
11989,88.312
11990,88.364
11991,88.416
11992,88.364
11993,88.104
11994,88.416
11995,88.364
11996,88.364
11997,88.208
11998,88.364
11999,88.416
12000,88.364
12001,88.260
12002,88.416
12003,88.416
12004,88.416
12005,88.364
12006,88.416
12007,88.416
12008,88.416
12009,88.364
12010,88.260
12011,88.416
12012,88.364
12013,88.312
12014,88.312
12015,88.416
12016,88.416
12017,88.260
12018,88.208
12019,88.416
12020,88.416
12021,88.312
12022,88.364
12023,88.416
12024,88.416
12025,88.260
12026,88.416
12027,88.416
12028,88.364
12029,88.364
12030,88.364
12031,88.416
12032,88.312
12033,88.364
12034,88.416
12035,88.312
12036,88.312
12037,88.416
12038,88.364
12039,88.208
12040,88.312
12041,88.416
12042,88.312
12043,88.156
12044,88.416
12045,88.416
12046,88.416
12047,88.312
12048,88.416
12049,88.416
12050,88.416
12051,88.364
12052,88.416
12053,88.468
12054,88.416
12055,88.364
12056,88.364
12057,88.416
12058,88.416
12059,88.312
12060,88.260
12061,88.416
12062,88.416
12063,88.364
12064,88.156
12065,88.416
12066,88.416
12067,88.364
12068,88.260
12069,88.416
12070,88.416
12071,88.312
12072,88.364
12073,88.416
12074,88.416
12075,88.260
12076,88.416
12077,88.416
12078,88.416
12079,88.312
12080,88.364
12081,88.416
12082,88.260
12083,88.416
12084,88.312
12085,88.312
12086,88.260
12087,88.364
12088,88.312
12089,88.156
12090,88.312
12091,88.416
12092,88.416
12093,88.312
12094,88.416
12095,88.416
12096,88.416
12097,88.312
12098,88.416
12099,88.416
12100,88.416
12101,88.416
12102,88.416
12103,88.416
12104,88.416
12105,88.364
12106,88.416
12107,88.416
12108,88.416
12109,88.312
12110,88.260
12111,88.416
12112,88.416
12113,88.312
12114,88.156
12115,88.416
12116,88.468
12117,88.312
12118,88.312
12119,88.416
12120,88.468
12121,88.260
12122,88.364
12123,88.312
12124,88.312
12125,88.208
12126,88.312
12127,88.364
12128,88.260
12129,88.156
12130,88.208
12131,88.208
12132,88.208
12133,88.208
12134,88.208
12135,88.208
12136,88.208
12137,88.312
12138,88.208
12139,88.104
12140,88.208
12141,88.312
12142,88.208
12143,88.208
12144,88.208
12145,88.364
12146,88.312
12147,88.260
12148,88.312
12149,88.312
12150,88.312
12151,88.312
12152,88.312
12153,88.260
12154,88.260
12155,88.208
12156,88.208
12157,88.312
12158,88.312
12159,88.208
12160,88.156
12161,88.312
12162,88.312
12163,88.208
12164,88.156
12165,88.364
12166,88.416
12167,88.208
12168,88.156
12169,88.260
12170,88.312
12171,88.208
12172,88.260
12173,88.208
12174,88.260
12175,88.156
12176,88.208
12177,88.208
12178,88.208
12179,88.208
12180,88.208
12181,88.208
12182,88.208
12183,88.208
12184,88.156
12185,88.052
12186,88.260
12187,88.312
12188,88.208
12189,88.208
12190,88.312
12191,88.416
12192,88.260
12193,88.208
12194,88.312
12195,88.364
12196,88.260
12197,88.260
12198,88.312
12199,88.260
12200,88.260
12201,88.208
12202,88.260
12203,88.208
12204,88.260
12205,88.208
12206,88.260
12207,88.208
12208,88.364
12209,88.312
12210,88.052
12211,88.312
12212,88.364
12213,88.312
12214,88.156
12215,88.312
12216,88.312
12217,88.208
12218,88.156
12219,88.312
12220,88.312
12221,88.208
12222,88.208
12223,88.260
12224,88.208
12225,88.156
12226,88.208
12227,88.208
12228,88.260
12229,88.156
12230,88.208
12231,88.104
12232,88.208
12233,88.208
12234,88.208
12235,88.104
12236,88.260
12237,88.416
12238,88.208
12239,88.260
12240,88.312
12241,88.364
12242,88.208
12243,88.208
12244,88.260
12245,88.312
12246,88.208
12247,88.260
12248,88.260
12249,88.260
12250,88.260
12251,88.260
12252,88.312
12253,88.208
12254,88.364
12255,88.260
12256,88.156
12257,88.260
12258,88.416
12259,88.312
12260,88.156
12261,88.312
12262,88.416
12263,88.312
12264,88.156
12265,88.260
12266,88.312
12267,88.312
12268,88.156
12269,88.312
12270,88.260
12271,88.156
12272,88.208
12273,88.260
12274,88.312
12275,88.156
12276,88.208
12277,88.208
12278,88.260
12279,88.208
12280,88.208
12281,88.156
12282,88.312
12283,88.312
12284,88.260
12285,88.260
12286,88.312
12287,88.364
12288,88.208
12289,88.208
12290,88.312
12291,88.260
12292,88.156
12293,88.208
12294,88.260
12295,88.312
12296,88.208
12297,88.312
12298,88.312
12299,88.208
12300,88.260
12301,88.260
12302,88.208
12303,88.260
12304,88.312
12305,88.260
12306,88.156
12307,88.260
12308,88.364
12309,88.260
12310,88.260
12311,88.260
12312,88.416
12313,88.260
12314,88.208
12315,88.312
12316,88.312
12317,88.208
12318,88.208
12319,88.208
12320,88.208
12321,88.208
12322,88.156
12323,88.260
12324,88.260
12325,88.208
12326,88.208
12327,88.156
12328,88.364
12329,88.364
12330,88.312
12331,88.156
12332,88.364
12333,88.364
12334,88.260
12335,88.208
12336,88.364
12337,88.364
12338,88.208
12339,88.208
12340,88.312
12341,88.312
12342,88.208
12343,88.208
12344,88.260
12345,88.312
12346,88.208
12347,88.260
12348,88.312
12349,88.312
12350,88.260
12351,88.260
12352,88.208
12353,88.312
12354,88.416
12355,88.312
12356,88.260
12357,88.260
12358,88.416
12359,88.260
12360,88.208
12361,88.260
12362,88.364
12363,88.260
12364,88.156
12365,88.208
12366,88.260
12367,88.208
12368,88.156
12369,88.312
12370,88.260
12371,88.208
12372,88.208
12373,88.208
12374,88.260
12375,88.260
12376,88.208
12377,88.156
12378,88.312
12379,88.312
12380,88.312
12381,88.208
12382,88.312
12383,88.416
12384,88.312
12385,88.208
12386,88.364
12387,88.364
12388,88.260
12389,88.208
12390,88.208
12391,88.260
12392,88.156
12393,88.260
12394,88.260
12395,88.260
12396,88.156
12397,88.312
12398,88.260
12399,88.312
12400,88.208
12401,88.312
12402,88.156
12403,88.260
12404,88.260
12405,88.208
12406,88.208
12407,88.208
12408,88.312
12409,88.208
12410,88.156
12411,88.208
12412,88.260
12413,88.208
12414,88.156
12415,88.208
12416,88.208
12417,88.208
12418,88.208
12419,88.260
12420,88.208
12421,88.260
12422,88.208
12423,88.208
12424,88.260
12425,88.312
12426,88.312
12427,88.208
12428,88.364
12429,88.416
12430,88.208
12431,88.208
12432,88.364
12433,88.364
12434,88.208
12435,88.156
12436,88.416
12437,88.260
12438,88.208
12439,88.156
12440,88.312
12441,88.364
12442,88.208
12443,88.260
12444,88.260
12445,88.312
12446,88.208
12447,88.312
12448,88.208
12449,88.312
12450,88.208
12451,88.260
12452,88.208
12453,88.260
12454,88.260
12455,88.260
12456,88.208
12457,88.312
12458,88.416
12459,88.260
12460,88.260
12461,88.312
12462,88.364
12463,88.208
12464,88.312
12465,88.312
12466,88.364
12467,88.312
12468,88.312
12469,88.364
12470,88.364
12471,88.364
12472,88.416
12473,88.312
12474,88.416
12475,88.416
12476,88.416
12477,88.416
12478,88.416
12479,88.468
12480,88.364
12481,88.312
12482,88.468
12483,88.364
12484,88.364
12485,88.208
12486,88.416
12487,88.468
12488,88.364
12489,88.312
12490,88.468
12491,88.416
12492,88.416
12493,88.312
12494,88.312
12495,88.416
12496,88.312
12497,88.416
12498,88.208
12499,88.416
12500,88.312
12501,88.416
12502,88.312
12503,88.364
12504,88.312
12505,88.312
12506,88.312
12507,88.364
12508,88.416
12509,88.312
12510,88.312
12511,88.364
12512,88.416
12513,88.312
12514,88.312
12515,88.364
12516,88.416
12517,88.312
12518,88.416
12519,88.260
12520,88.416
12521,88.416
12522,88.416
12523,88.416
12524,88.416
12525,88.468
12526,88.364
12527,88.364
12528,88.312
12529,88.468
12530,88.364
12531,88.208
12532,88.416
12533,88.468
12534,88.312
12535,88.260
12536,88.468
12537,88.416
12538,88.416
12539,88.364
12540,88.416
12541,88.416
12542,88.416
12543,88.312
12544,88.312
12545,88.416
12546,88.312
12547,88.260
12548,88.416
12549,88.416
12550,88.312
12551,88.312
12552,88.260
12553,88.416
12554,88.364
12555,88.312
12556,88.260
12557,88.364
12558,88.364
12559,88.312
12560,88.312
12561,88.364
12562,88.416
12563,88.312
12564,88.416
12565,88.416
12566,88.416
12567,88.312
12568,88.416
12569,88.260
12570,88.416
12571,88.364
12572,88.416
12573,88.312
12574,88.260
12575,88.416
12576,88.364
12577,88.364
12578,88.364
12579,88.468
12580,88.364
12581,88.312
12582,88.312
12583,88.468
12584,88.416
12585,88.312
12586,88.416
12587,88.468
12588,88.312
12589,88.312
12590,88.416
12591,88.416
12592,88.312
12593,88.260
12594,88.364
12595,88.364
12596,88.364
12597,88.364
12598,88.312
12599,88.416
12600,88.364
12601,88.312
12602,88.260
12603,88.364
12604,88.364
12605,88.312
12606,88.208
12607,88.364
12608,88.312
12609,88.312
12610,88.364
12611,88.416
12612,88.416
12613,88.364
12614,88.416
12615,88.260
12616,88.416
12617,88.260
12618,88.416
12619,88.416
12620,88.416
12621,88.468
12622,88.519
12623,88.468
12624,88.468
12625,88.623
12626,88.519
12627,88.468
12628,88.416
12629,88.623
12630,88.571
12631,88.468
12632,88.468
12633,88.623
12634,88.519
12635,88.571
12636,88.571
12637,88.623
12638,88.519
12639,88.468
12640,88.468
12641,88.623
12642,88.519
12643,88.468
12644,88.571
12645,88.571
12646,88.519
12647,88.416
12648,88.468
12649,88.571
12650,88.571
12651,88.468
12652,88.468
12653,88.623
12654,88.623
12655,88.571
12656,88.416
12657,88.623
12658,88.623
12659,88.571
12660,88.519
12661,88.623
12662,88.623
12663,88.519
12664,88.623
12665,88.468
12666,88.623
12667,88.519
12668,88.571
12669,88.571
12670,88.623
12671,88.468
12672,88.571
12673,88.519
12674,88.571
12675,88.571
12676,88.571
12677,88.519
12678,88.519
12679,88.623
12680,88.623
12681,88.519
12682,88.519
12683,88.675
12684,88.571
12685,88.519
12686,88.416
12687,88.623
12688,88.519
12689,88.519
12690,88.468
12691,88.519
12692,88.571
12693,88.468
12694,88.468
12695,88.519
12696,88.519
12697,88.416
12698,88.468
12699,88.571
12700,88.571
12701,88.416
12702,88.468
12703,88.623
12704,88.623
12705,88.571
12706,88.468
12707,88.623
12708,88.623
12709,88.623
12710,88.519
12711,88.519
12712,88.623
12713,88.468
12714,88.519
12715,88.623
12716,88.519
12717,88.468
12718,88.571
12719,88.571
12720,88.519
12721,88.519
12722,88.519
12723,88.571
12724,88.623
12725,88.623
12726,88.571
12727,88.571
12728,88.623
12729,88.675
12730,88.571
12731,88.519
12732,88.519
12733,88.623
12734,88.571
12735,88.468
12736,88.364
12737,88.571
12738,88.468
12739,88.468
12740,88.468
12741,88.468
12742,88.571
12743,88.416
12744,88.468
12745,88.468
12746,88.623
12747,88.468
12748,88.468
12749,88.519
12750,88.623
12751,88.468
12752,88.519
12753,88.571
12754,88.623
12755,88.519
12756,88.571
12757,88.623
12758,88.623
12759,88.623
12760,88.519
12761,88.623
12762,88.571
12763,88.468
12764,88.519
12765,88.571
12766,88.571
12767,88.416
12768,88.571
12769,88.571
12770,88.571
12771,88.519
12772,88.623
12773,88.571
12774,88.571
12775,88.571
12776,88.623
12777,88.468
12778,88.519
12779,88.623
12780,88.571
12781,88.571
12782,88.416
12783,88.623
12784,88.468
12785,88.571
12786,88.519
12787,88.675
12788,88.623
12789,88.623
12790,88.623
12791,88.675
12792,88.727
12793,88.623
12794,88.623
12795,88.675
12796,88.779
12797,88.623
12798,88.727
12799,88.727
12800,88.831
12801,88.727
12802,88.727
12803,88.831
12804,88.831
12805,88.779
12806,88.727
12807,88.727
12808,88.831
12809,88.727
12810,88.675
12811,88.831
12812,88.779
12813,88.675
12814,88.623
12815,88.831
12816,88.831
12817,88.727
12818,88.675
12819,88.831
12820,88.779
12821,88.831
12822,88.831
12823,88.779
12824,88.831
12825,88.779
12826,88.779
12827,88.779
12828,88.727
12829,88.831
12830,88.831
12831,88.779
12832,88.623
12833,88.831
12834,88.675
12835,88.779
12836,88.727
12837,88.831
12838,88.623
12839,88.727
12840,88.623
12841,88.727
12842,88.779
12843,88.727
12844,88.623
12845,88.727
12846,88.831
12847,88.727
12848,88.727
12849,88.727
12850,88.883
12851,88.779
12852,88.727
12853,88.675
12854,88.935
12855,88.779
12856,88.779
12857,88.675
12858,88.831
12859,88.727
12860,88.675
12861,88.831
12862,88.779
12863,88.727
12864,88.623
12865,88.779
12866,88.831
12867,88.727
12868,88.727
12869,88.831
12870,88.831
12871,88.727
12872,88.831
12873,88.727
12874,88.831
12875,88.831
12876,88.831
12877,88.727
12878,88.675
12879,88.779
12880,88.727
12881,88.779
12882,88.727
12883,88.727
12884,88.675
12885,88.727
12886,88.675
12887,88.779
12888,88.623
12889,88.727
12890,88.623
12891,88.779
12892,88.727
12893,88.779
12894,88.675
12895,88.779
12896,88.831
12897,88.727
12898,88.727
12899,88.779
12900,88.935
12901,88.831
12902,88.779
12903,88.623
12904,88.883
12905,88.779
12906,88.727
12907,88.831
12908,88.831
12909,88.675
12910,88.675
12911,88.831
12912,88.779
12913,88.727
12914,88.623
12915,88.779
12916,88.779
12917,88.779
12918,88.675
12919,88.779
12920,88.831
12921,88.831
12922,88.779
12923,88.779
12924,88.727
12925,88.779
12926,88.727
12927,88.675
12928,88.675
12929,88.675
12930,88.675
12931,88.675
12932,88.727
12933,88.727
12934,88.623
12935,88.727
12936,88.727
12937,88.727
12938,88.727
12939,88.779
12940,88.675
12941,88.779
12942,88.779
12943,88.779
12944,88.623
12945,88.831
12946,88.831
12947,88.779
12948,88.727
12949,88.675
12950,88.883
12951,88.779
12952,88.779
12953,88.675
12954,88.987
12955,88.831
12956,88.883
12957,88.935
12958,88.987
12959,88.935
12960,88.935
12961,88.987
12962,89.039
12963,89.039
12964,88.987
12965,89.039
12966,89.039
12967,89.091
12968,88.987
12969,88.935
12970,89.039
12971,89.039
12972,88.935
12973,88.935
12974,88.883
12975,89.039
12976,88.987
12977,88.935
12978,88.987
12979,88.987
12980,89.039
12981,88.987
12982,89.039
12983,88.935
12984,88.987
12985,88.935
12986,88.987
12987,88.935
12988,89.039
12989,89.039
12990,88.987
12991,89.039
12992,89.039
12993,89.091
12994,89.039
12995,89.039
12996,89.039
12997,89.091
12998,88.987
12999,88.883
13000,89.091
13001,88.987
13002,88.883
13003,88.987
13004,89.091
13005,89.039
13006,88.987
13007,88.987
13008,89.091
13009,89.039
13010,89.039
13011,89.039
13012,89.091
13013,89.091
13014,88.987
13015,89.091
13016,89.091
13017,89.091
13018,88.987
13019,89.039
13020,89.039
13021,89.091
13022,88.987
13023,88.987
13024,88.831
13025,89.039
13026,88.935
13027,88.935
13028,89.039
13029,88.987
13030,88.935
13031,88.935
13032,88.987
13033,88.935
13034,88.935
13035,88.987
13036,88.987
13037,88.935
13038,89.039
13039,89.039
13040,88.987
13041,89.039
13042,89.039
13043,89.091
13044,88.987
13045,88.987
13046,89.039
13047,89.039
13048,88.987
13049,88.987
13050,89.039
13051,89.039
13052,88.935
13053,88.987
13054,89.091
13055,88.987
13056,88.987
13057,88.987
13058,89.091
13059,88.987
13060,89.039
13061,89.039
13062,89.091
13063,89.039
13064,89.039
13065,88.987
13066,89.039
13067,89.091
13068,88.935
13069,88.987
13070,88.987
13071,89.091
13072,88.935
13073,89.039
13074,89.039
13075,89.039
13076,88.987
13077,88.987
13078,88.987
13079,88.987
13080,88.935
13081,88.883
13082,89.039
13083,89.039
13084,89.039
13085,88.935
13086,89.039
13087,89.039
13088,89.091
13089,89.039
13090,89.039
13091,89.039
13092,89.091
13093,89.039
13094,88.987
13095,88.935
13096,88.987
13097,89.039
13098,89.039
13099,89.039
13100,89.039
13101,89.039
13102,88.987
13103,88.987
13104,89.039
13105,89.039
13106,88.987
13107,89.039
13108,89.091
13109,89.039
13110,89.039
13111,88.935
13112,89.039
13113,89.091
13114,89.039
13115,88.987
13116,89.091
13117,89.091
13118,88.935
13119,88.987
13120,89.039
13121,89.247
13122,89.091
13123,89.195
13124,89.247
13125,89.299
13126,89.143
13127,89.247
13128,89.299
13129,89.351
13130,89.247
13131,89.299
13132,89.403
13133,89.403
13134,89.403
13135,89.299
13136,89.403
13137,89.403
13138,89.455
13139,89.403
13140,89.351
13141,89.299
13142,89.455
13143,89.455
13144,89.403
13145,89.351
13146,89.455
13147,89.403
13148,89.351
13149,89.351
13150,89.351
13151,89.403
13152,89.299
13153,89.351
13154,89.403
13155,89.403
13156,89.351
13157,89.351
13158,89.455
13159,89.403
13160,89.403
13161,89.299
13162,89.403
13163,89.455
13164,89.351
13165,89.247
13166,89.299
13167,89.455
13168,89.299
13169,89.299
13170,89.403
13171,89.403
13172,89.351
13173,89.299
13174,89.351
13175,89.403
13176,89.299
13177,89.299
13178,89.351
13179,89.403
13180,89.299
13181,89.299
13182,89.455
13183,89.403
13184,89.455
13185,89.351
13186,89.403
13187,89.455
13188,89.455
13189,89.299
13190,89.403
13191,89.247
13192,89.403
13193,89.351
13194,89.403
13195,89.403
13196,89.455
13197,89.455
13198,89.403
13199,89.455
13200,89.403
13201,89.455
13202,89.403
13203,89.403
13204,89.351
13205,89.455
13206,89.403
13207,89.403
13208,89.403
13209,89.455
13210,89.403
13211,89.247
13212,89.299
13213,89.351
13214,89.299
13215,89.247
13216,89.247
13217,89.455
13218,89.299
13219,89.247
13220,89.351
13221,89.455
13222,89.299
13223,89.351
13224,89.403
13225,89.455
13226,89.351
13227,89.403
13228,89.403
13229,89.455
13230,89.351
13231,89.351
13232,89.455
13233,89.455
13234,89.403
13235,89.299
13236,89.403
13237,89.247
13238,89.403
13239,89.247
13240,89.403
13241,89.403
13242,89.455
13243,89.351
13244,89.351
13245,89.351
13246,89.403
13247,89.403
13248,89.455
13249,89.455
13250,89.403
13251,89.455
13252,89.403
13253,89.455
13254,89.351
13255,89.455
13256,89.403
13257,89.351
13258,89.299
13259,89.403
13260,89.299
13261,89.247
13262,89.195
13263,89.403
13264,89.299
13265,89.247
13266,89.299
13267,89.403
13268,89.351
13269,89.299
13270,89.455
13271,89.455
13272,89.403
13273,89.403
13274,89.403
13275,89.455
13276,89.403
13277,89.403
13278,89.403
13279,89.455
13280,89.403
13281,89.351
13282,89.299
13283,89.351
13284,89.403
13285,89.299
13286,89.403
13287,89.403
13288,89.610
13289,89.506
13290,89.558
13291,89.662
13292,89.662
13293,89.610
13294,89.714
13295,89.766
13296,89.714
13297,89.662
13298,89.766
13299,89.818
13300,89.714
13301,89.714
13302,89.714
13303,89.714
13304,89.662
13305,89.714
13306,89.662
13307,89.662
13308,89.558
13309,89.714
13310,89.662
13311,89.662
13312,89.662
13313,89.818
13314,89.818
13315,89.662
13316,89.766
13317,89.766
13318,89.818
13319,89.714
13320,89.870
13321,89.870
13322,89.818
13323,89.766
13324,89.818
13325,89.870
13326,89.766
13327,89.818
13328,89.714
13329,89.818
13330,89.714
13331,89.714
13332,89.662
13333,89.714
13334,89.714
13335,89.766
13336,89.662
13337,89.818
13338,89.870
13339,89.714
13340,89.766
13341,89.766
13342,89.818
13343,89.662
13344,89.766
13345,89.766
13346,89.766
13347,89.662
13348,89.714
13349,89.766
13350,89.662
13351,89.610
13352,89.662
13353,89.714
13354,89.662
13355,89.662
13356,89.662
13357,89.662
13358,89.506
13359,89.714
13360,89.662
13361,89.714
13362,89.766
13363,89.818
13364,89.766
13365,89.714
13366,89.766
13367,89.766
13368,89.870
13369,89.766
13370,89.818
13371,89.870
13372,89.766
13373,89.766
13374,89.818
13375,89.870
13376,89.714
13377,89.714
13378,89.662
13379,89.662
13380,89.766
13381,89.714
13382,89.662
13383,89.714
13384,89.870
13385,89.766
13386,89.662
13387,89.766
13388,89.870
13389,89.662
13390,89.714
13391,89.766
13392,89.766
13393,89.662
13394,89.714
13395,89.714
13396,89.714
13397,89.610
13398,89.662
13399,89.714
13400,89.714
13401,89.662
13402,89.662
13403,89.714
13404,89.662
13405,89.714
13406,89.662
13407,89.662
13408,89.662
13409,89.766
13410,89.714
13411,89.714
13412,89.714
13413,89.818
13414,89.818
13415,89.714
13416,89.766
13417,89.818
13418,89.766
13419,89.766
13420,89.818
13421,89.662
13422,89.766
13423,89.714
13424,89.662
13425,89.714
13426,89.766
13427,89.714
13428,89.662
13429,89.662
13430,89.766
13431,89.766
13432,89.662
13433,89.818
13434,89.818
13435,89.766
13436,89.662
13437,89.766
13438,89.818
13439,89.714
13440,89.662
13441,89.714
13442,89.766
13443,89.662
13444,89.714
13445,89.714
13446,89.662
13447,89.610
13448,89.662
13449,89.714
13450,89.662
13451,89.662
13452,89.662
13453,89.766
13454,89.662
13455,89.870
13456,89.870
13457,89.922
13458,89.974
13459,90.078
13460,89.922
13461,90.026
13462,90.026
13463,90.078
13464,90.026
13465,89.974
13466,89.974
13467,89.974
13468,90.078
13469,89.974
13470,89.974
13471,89.974
13472,90.026
13473,90.026
13474,90.078
13475,89.974
13476,90.078
13477,90.078
13478,90.026
13479,89.974
13480,90.078
13481,90.026
13482,89.974
13483,90.078
13484,90.130
13485,90.026
13486,89.922
13487,90.078
13488,90.130
13489,90.026
13490,89.870
13491,90.026
13492,90.078
13493,89.974
13494,89.974
13495,90.026
13496,90.078
13497,89.922
13498,89.974
13499,89.922
13500,89.922
13501,89.922
13502,90.026
13503,90.026
13504,90.078
13505,90.078
13506,89.974
13507,90.078
13508,90.078
13509,90.078
13510,89.922
13511,90.026
13512,90.078
13513,90.078
13514,89.974
13515,89.974
13516,89.974
13517,90.026
13518,90.078
13519,90.026
13520,90.078
13521,90.026
13522,90.078
13523,90.078
13524,90.078
13525,89.870
13526,90.130
13527,90.078
13528,90.026
13529,89.974
13530,90.130
13531,90.078
13532,89.922
13533,90.078
13534,90.078
13535,90.078
13536,89.870
13537,90.078
13538,90.078
13539,89.974
13540,89.870
13541,90.026
13542,90.026
13543,89.974
13544,89.922
13545,89.974
13546,89.974
13547,89.974
13548,90.026
13549,90.026
13550,90.026
13551,90.078
13552,90.078
13553,90.026
13554,90.078
13555,90.078
13556,89.974
13557,90.026
13558,90.078
13559,90.078
13560,89.974
13561,90.026
13562,90.078
13563,90.078
13564,89.974
13565,90.078
13566,90.078
13567,90.078
13568,89.974
13569,90.078
13570,90.078
13571,89.922
13572,90.026
13573,90.078
13574,90.078
13575,89.870
13576,90.078
13577,89.974
13578,90.026
13579,90.026
13580,90.130
13581,90.078
13582,89.922
13583,90.026
13584,90.130
13585,89.974
13586,89.870
13587,90.078
13588,90.026
13589,89.974
13590,89.870
13591,90.078
13592,89.974
13593,89.974
13594,89.922
13595,90.078
13596,90.026
13597,90.078
13598,90.078
13599,90.078
13600,90.078
13601,90.078
13602,90.078
13603,89.974
13604,90.130
13605,90.130
13606,90.026
13607,90.026
13608,90.078
13609,90.078
13610,89.974
13611,89.974
13612,90.078
13613,90.078
13614,89.974
13615,90.026
13616,90.078
13617,90.078
13618,89.974
13619,90.078
13620,90.130
13621,90.078
13622,90.286
13623,90.286
13624,90.286
13625,90.286
13626,90.442
13627,90.286
13628,90.286
13629,90.286
13630,90.442
13631,90.286
13632,90.286
13633,90.286
13634,90.390
13635,90.286
13636,90.286
13637,90.338
13638,90.286
13639,90.338
13640,90.286
13641,90.390
13642,90.286
13643,90.390
13644,90.338
13645,90.390
13646,90.338
13647,90.390
13648,90.442
13649,90.442
13650,90.494
13651,90.494
13652,90.442
13653,90.286
13654,90.494
13655,90.442
13656,90.286
13657,90.286
13658,90.442
13659,90.390
13660,90.286
13661,90.338
13662,90.390
13663,90.390
13664,90.286
13665,90.442
13666,90.442
13667,90.338
13668,90.286
13669,90.390
13670,90.390
13671,90.286
13672,90.390
13673,90.338
13674,90.286
13675,90.286
13676,90.338
13677,90.286
13678,90.286
13679,90.286
13680,90.390
13681,90.286
13682,90.286
13683,90.286
13684,90.338
13685,90.338
13686,90.286
13687,90.338
13688,90.338
13689,90.338
13690,90.286
13691,90.390
13692,90.234
13693,90.390
13694,90.390
13695,90.390
13696,90.390
13697,90.442
13698,90.390
13699,90.338
13700,90.494
13701,90.494
13702,90.286
13703,90.286
13704,90.442
13705,90.390
13706,90.286
13707,90.286
13708,90.442
13709,90.442
13710,90.338
13711,90.338
13712,90.442
13713,90.442
13714,90.286
13715,90.390
13716,90.390
13717,90.234
13718,90.286
13719,90.390
13720,90.338
13721,90.390
13722,90.286
13723,90.338
13724,90.286
13725,90.338
13726,90.286
13727,90.286
13728,90.286
13729,90.286
13730,90.442
13731,90.286
13732,90.234
13733,90.286
13734,90.390
13735,90.286
13736,90.286
13737,90.286
13738,90.286
13739,90.286
13740,90.338
13741,90.390
13742,90.286
13743,90.442
13744,90.390
13745,90.390
13746,90.390
13747,90.442
13748,90.338
13749,90.286
13750,90.390
13751,90.390
13752,90.286
13753,90.234
13754,90.390
13755,90.494
13756,90.338
13757,90.286
13758,90.390
13759,90.494
13760,90.338
13761,90.286
13762,90.442
13763,90.286
13764,90.338
13765,90.338
13766,90.442
13767,90.390
13768,90.286
13769,90.338
13770,90.390
13771,90.338
13772,90.338
13773,90.338
13774,90.286
13775,90.338
13776,90.390
13777,90.286
13778,90.286
13779,90.286
13780,90.390
13781,90.286
13782,90.286
13783,90.286
13784,90.338
13785,90.286
13786,90.338
13787,90.494
13788,90.390
13789,90.597
13790,90.597
13791,90.701
13792,90.701
13793,90.753
13794,90.649
13795,90.701
13796,90.649
13797,90.701
13798,90.701
13799,90.649
13800,90.649
13801,90.857
13802,90.701
13803,90.597
13804,90.753
13805,90.805
13806,90.701
13807,90.701
13808,90.805
13809,90.753
13810,90.753
13811,90.701
13812,90.753
13813,90.701
13814,90.701
13815,90.701
13816,90.805
13817,90.805
13818,90.701
13819,90.701
13820,90.701
13821,90.701
13822,90.701
13823,90.701
13824,90.649
13825,90.701
13826,90.701
13827,90.701
13828,90.649
13829,90.701
13830,90.701
13831,90.649
13832,90.701
13833,90.753
13834,90.701
13835,90.701
13836,90.805
13837,90.753
13838,90.649
13839,90.701
13840,90.701
13841,90.701
13842,90.701
13843,90.805
13844,90.753
13845,90.701
13846,90.701
13847,90.857
13848,90.701
13849,90.649
13850,90.701
13851,90.909
13852,90.701
13853,90.701
13854,90.753
13855,90.857
13856,90.701
13857,90.701
13858,90.857
13859,90.701
13860,90.701
13861,90.701
13862,90.857
13863,90.805
13864,90.701
13865,90.701
13866,90.805
13867,90.753
13868,90.701
13869,90.701
13870,90.701
13871,90.701
13872,90.701
13873,90.701
13874,90.597
13875,90.701
13876,90.753
13877,90.701
13878,90.701
13879,90.805
13880,90.753
13881,90.701
13882,90.805
13883,90.857
13884,90.649
13885,90.701
13886,90.805
13887,90.753
13888,90.753
13889,90.701
13890,90.753
13891,90.753
13892,90.701
13893,90.753
13894,90.753
13895,90.701
13896,90.701
13897,90.805
13898,90.701
13899,90.649
13900,90.701
13901,90.909
13902,90.753
13903,90.701
13904,90.701
13905,90.805
13906,90.701
13907,90.701
13908,90.805
13909,90.649
13910,90.701
13911,90.701
13912,90.805
13913,90.753
13914,90.753
13915,90.649
13916,90.701
13917,90.701
13918,90.701
13919,90.649
13920,90.649
13921,90.701
13922,90.701
13923,90.701
13924,90.649
13925,90.753
13926,90.805
13927,90.753
13928,90.701
13929,90.805
13930,90.701
13931,90.701
13932,90.805
13933,90.909
13934,90.701
13935,90.753
13936,90.805
13937,90.753
13938,90.753
13939,90.701
13940,90.753
13941,90.701
13942,90.753
13943,90.701
13944,90.753
13945,90.701
13946,90.701
13947,90.805
13948,90.753
13949,90.701
13950,90.701
13951,90.805
13952,90.753
13953,90.753
13954,90.805
13955,90.857
13956,90.909
13957,90.909
13958,90.909
13959,90.909
13960,90.909
13961,90.909
13962,91.013
13963,90.909
13964,90.909
13965,90.909
13966,90.909
13967,90.909
13968,91.013
13969,90.857
13970,90.909
13971,90.961
13972,91.117
13973,90.961
13974,90.909
13975,91.013
13976,91.065
13977,91.013
13978,90.909
13979,91.117
13980,90.909
13981,91.013
13982,91.013
13983,91.117
13984,91.013
13985,90.961
13986,91.013
13987,91.065
13988,91.065
13989,90.909
13990,91.065
13991,91.013
13992,91.013
13993,91.013
13994,91.013
13995,90.961
13996,91.013
13997,91.065
13998,91.013
13999,91.065
14000,91.013
14001,91.117
14002,91.065
14003,91.065
14004,91.065
14005,91.013
14006,91.013
14007,91.013
14008,90.961
14009,91.117
14010,90.961
14011,91.013
14012,91.065
14013,91.065
14014,91.065
14015,90.909
14016,91.013
14017,91.013
14018,91.013
14019,90.909
14020,90.909
14021,90.961
14022,91.065
14023,90.961
14024,90.909
14025,91.065
14026,90.961
14027,90.961
14028,90.961
14029,91.117
14030,91.013
14031,91.065
14032,90.961
14033,91.117
14034,91.065
14035,90.961
14036,91.013
14037,91.065
14038,91.013
14039,90.961
14040,91.013
14041,91.013
14042,91.065
14043,91.065
14044,91.065
14045,91.013
14046,91.013
14047,91.117
14048,91.065
14049,90.961
14050,91.065
14051,91.013
14052,91.065
14053,91.013
14054,91.013
14055,91.117
14056,91.013
14057,90.961
14058,91.013
14059,91.065
14060,91.013
14061,90.961
14062,90.961
14063,91.065
14064,91.013
14065,90.909
14066,90.909
14067,90.961
14068,91.013
14069,90.909
14070,90.961
14071,91.013
14072,91.065
14073,90.961
14074,90.909
14075,91.117
14076,91.013
14077,91.065
14078,90.909
14079,91.117
14080,91.117
14081,90.961
14082,90.909
14083,91.065
14084,91.013
14085,90.961
14086,90.961
14087,91.013
14088,91.065
14089,91.065
14090,91.013
14091,90.961
14092,91.065
14093,91.065
14094,91.117
14095,90.961
14096,91.065
14097,91.013
14098,91.117
14099,90.909
14100,91.013
14101,90.909
14102,90.961
14103,91.013
14104,91.013
14105,91.065
14106,91.013
14107,91.065
14108,90.961
14109,91.065
14110,90.961
14111,90.961
14112,90.909
14113,90.961
14114,91.065
14115,90.909
14116,90.961
14117,90.961
14118,91.117
14119,90.961
14120,91.013
14121,91.065
14122,91.065
14123,91.065
14124,91.013
14125,91.065
14126,91.117
14127,91.117
14128,91.013
14129,91.169
14130,91.117
14131,91.065
14132,91.013
14133,91.117
14134,91.117
14135,91.117
14136,91.065
14137,91.221
14138,91.169
14139,91.117
14140,91.117
14141,91.117
14142,91.117
14143,91.117
14144,91.169
14145,91.065
14146,91.117
14147,91.065
14148,91.117
14149,91.117
14150,91.117
14151,91.117
14152,91.117
14153,91.117
14154,91.117
14155,91.117
14156,91.065
14157,91.117
14158,91.065
14159,91.065
14160,91.065
14161,91.117
14162,91.117
14163,91.117
14164,91.169
14165,91.117
14166,91.117
14167,91.169
14168,91.221
14169,91.117
14170,91.117
14171,91.117
14172,91.117
14173,91.117
14174,91.117
14175,91.117
14176,91.169
14177,91.117
14178,91.013
14179,91.169
14180,91.117
14181,91.013
14182,91.013
14183,91.221
14184,91.117
14185,91.117
14186,91.065
14187,91.117
14188,91.221
14189,91.117
14190,91.065
14191,91.117
14192,91.221
14193,91.117
14194,91.117
14195,91.117
14196,91.117
14197,90.961
14198,91.117
14199,91.065
14200,91.117
14201,91.117
14202,90.961
14203,91.065
14204,91.117
14205,91.065
14206,91.065
14207,91.117
14208,91.169
14209,91.117
14210,91.117
14211,91.169
14212,91.065
14213,91.169
14214,91.117
14215,91.169
14216,91.065
14217,91.117
14218,91.117
14219,91.169
14220,91.117
14221,91.065
14222,91.221
14223,91.117
14224,91.065
14225,91.065
14226,91.221
14227,91.065
14228,91.065
14229,91.117
14230,91.117
14231,91.117
14232,91.117
14233,91.169
14234,91.169
14235,91.117
14236,91.117
14237,91.169
14238,91.169
14239,91.117
14240,91.065
14241,91.117
14242,91.169
14243,91.065
14244,91.117
14245,91.065
14246,91.117
14247,91.117
14248,91.117
14249,91.065
14250,91.117
14251,91.065
14252,91.117
14253,91.117
14254,91.117
14255,91.117
14256,91.117
14257,91.169
14258,91.169
14259,91.169
14260,91.117
14261,91.169
14262,91.117
14263,91.221
14264,91.169
14265,91.169
14266,91.117
14267,91.117
14268,91.117
14269,91.117
14270,91.065
14271,91.117
14272,91.221
14273,91.117
14274,91.065
14275,91.117
14276,91.221
14277,91.117
14278,91.117
14279,91.117
14280,91.117
14281,91.117
14282,91.117
14283,91.169
14284,91.221
14285,91.117
14286,91.117
14287,91.169
14288,91.273
14289,91.169
14290,91.117
14291,91.221
14292,91.273
14293,91.169
14294,91.169
14295,91.169
14296,91.221
14297,91.325
14298,91.221
14299,91.221
14300,91.325
14301,91.273
14302,91.325
14303,91.273
14304,91.325
14305,91.325
14306,91.325
14307,91.325
14308,91.377
14309,91.325
14310,91.325
14311,91.325
14312,91.325
14313,91.377
14314,91.273
14315,91.377
14316,91.273
14317,91.325
14318,91.377
14319,91.325
14320,91.221
14321,91.325
14322,91.325
14323,91.325
14324,91.273
14325,91.325
14326,91.377
14327,91.325
14328,91.325
14329,91.325
14330,91.325
14331,91.325
14332,91.325
14333,91.325
14334,91.325
14335,91.377
14336,91.221
14337,91.325
14338,91.273
14339,91.221
14340,91.169
14341,91.169
14342,91.273
14343,91.325
14344,91.273
14345,91.273
14346,91.325
14347,91.273
14348,91.169
14349,91.325
14350,91.325
14351,91.325
14352,91.325
14353,91.221
14354,91.325
14355,91.325
14356,91.325
14357,91.325
14358,91.377
14359,91.377
14360,91.325
14361,91.377
14362,91.325
14363,91.325
14364,91.273
14365,91.325
14366,91.273
14367,91.325
14368,91.273
14369,91.325
14370,91.273
14371,91.325
14372,91.325
14373,91.273
14374,91.325
14375,91.325
14376,91.377
14377,91.325
14378,91.325
14379,91.325
14380,91.325
14381,91.221
14382,91.273
14383,91.221
14384,91.325
14385,91.221
14386,91.273
14387,91.169
14388,91.273
14389,91.325
14390,91.169
14391,91.221
14392,91.273
14393,91.325
14394,91.221
14395,91.221
14396,91.273
14397,91.325
14398,91.221
14399,91.221
14400,91.325
14401,91.325
14402,91.273
14403,91.273
14404,91.325
14405,91.325
14406,91.273
14407,91.325
14408,91.325
14409,91.325
14410,91.325
14411,91.325
14412,91.325
14413,91.325
14414,91.325
14415,91.325
14416,91.221
14417,91.325
14418,91.273
14419,91.325
14420,91.273
14421,91.325
14422,91.273
14423,91.325
14424,91.325
14425,91.325
14426,91.377
14427,91.325
14428,91.325
14429,91.325
14430,91.377
14431,91.325
14432,91.325
14433,91.169
14434,91.325
14435,91.273
14436,91.221
14437,91.169
14438,91.325
14439,91.325
14440,91.273
14441,91.169
14442,91.273
14443,91.377
14444,91.169
14445,91.273
14446,91.273
14447,91.325
14448,91.169
14449,91.273
14450,91.325
14451,91.377
14452,91.273
14453,91.325
14454,91.429
14455,91.377
14456,91.377
14457,91.325
14458,91.377
14459,91.377
14460,91.325
14461,91.325
14462,91.325
14463,91.325
14464,91.429
14465,91.377
14466,91.325
14467,91.377
14468,91.377
14469,91.429
14470,91.377
14471,91.481
14472,91.325
14473,91.429
14474,91.377
14475,91.481
14476,91.481
14477,91.429
14478,91.377
14479,91.377
14480,91.481
14481,91.325
14482,91.429
14483,91.325
14484,91.377
14485,91.325
14486,91.325
14487,91.273
14488,91.377
14489,91.429
14490,91.325
14491,91.325
14492,91.325
14493,91.325
14494,91.325
14495,91.377
14496,91.377
14497,91.429
14498,91.325
14499,91.429
14500,91.429
14501,91.481
14502,91.429
14503,91.377
14504,91.481
14505,91.429
14506,91.325
14507,91.325
14508,91.377
14509,91.377
14510,91.481
14511,91.273
14512,91.325
14513,91.429
14514,91.429
14515,91.325
14516,91.429
14517,91.481
14518,91.325
14519,91.377
14520,91.429
14521,91.481
14522,91.377
14523,91.429
14524,91.429
14525,91.429
14526,91.377
14527,91.429
14528,91.377
14529,91.325
14530,91.377
14531,91.273
14532,91.377
14533,91.273
14534,91.377
14535,91.377
14536,91.325
14537,91.325
14538,91.377
14539,91.481
14540,91.481
14541,91.377
14542,91.429
14543,91.532
14544,91.377
14545,91.429
14546,91.429
14547,91.481
14548,91.325
14549,91.377
14550,91.377
14551,91.429
14552,91.325
14553,91.325
14554,91.325
14555,91.429
14556,91.325
14557,91.325
14558,91.325
14559,91.429
14560,91.429
14561,91.325
14562,91.377
14563,91.429
14564,91.429
14565,91.325
14566,91.429
14567,91.377
14568,91.429
14569,91.325
14570,91.429
14571,91.429
14572,91.325
14573,91.377
14574,91.325
14575,91.377
14576,91.325
14577,91.221
14578,91.325
14579,91.325
14580,91.325
14581,91.325
14582,91.429
14583,91.325
14584,91.429
14585,91.429
14586,91.429
14587,91.325
14588,91.429
14589,91.429
14590,91.429
14591,91.377
14592,91.481
14593,91.481
14594,91.377
14595,91.377
14596,91.429
14597,91.532
14598,91.377
14599,91.377
14600,91.325
14601,91.481
14602,91.325
14603,91.325
14604,91.325
14605,91.481
14606,91.429
14607,91.325
14608,91.377
14609,91.377
14610,91.481
14611,91.325
14612,91.377
14613,91.429
14614,91.481
14615,91.325
14616,91.377
14617,91.429
14618,91.377
14619,91.325
14620,91.429
14621,91.377
14622,91.429
14623,91.377
14624,91.429
14625,91.429
14626,91.377
14627,91.325
14628,91.377
14629,91.429
14630,91.481
14631,91.532
14632,91.429
14633,91.377
14634,91.481
14635,91.532
14636,91.481
14637,91.481
14638,91.481
14639,91.532
14640,91.532
14641,91.532
14642,91.532
14643,91.532
14644,91.532
14645,91.481
14646,91.532
14647,91.584
14648,91.325
14649,91.481
14650,91.377
14651,91.532
14652,91.481
14653,91.429
14654,91.377
14655,91.532
14656,91.532
14657,91.481
14658,91.429
14659,91.532
14660,91.532
14661,91.481
14662,91.532
14663,91.532
14664,91.532
14665,91.377
14666,91.481
14667,91.532
14668,91.481
14669,91.429
14670,91.429
14671,91.532
14672,91.377
14673,91.325
14674,91.429
14675,91.481
14676,91.429
14677,91.532
14678,91.429
14679,91.325
14680,91.481
14681,91.532
14682,91.481
14683,91.429
14684,91.481
14685,91.532
14686,91.532
14687,91.532
14688,91.532
14689,91.532
14690,91.532
14691,91.481
14692,91.532
14693,91.429
14694,91.532
14695,91.377
14696,91.429
14697,91.481
14698,91.377
14699,91.481
14700,91.481
14701,91.532
14702,91.584
14703,91.481
14704,91.377
14705,91.584
14706,91.584
14707,91.429
14708,91.377
14709,91.532
14710,91.584
14711,91.481
14712,91.532
14713,91.532
14714,91.532
14715,91.377
14716,91.481
14717,91.532
14718,91.532
14719,91.325
14720,91.429
14721,91.481
14722,91.481
14723,91.325
14724,91.429
14725,91.481
14726,91.377
14727,91.532
14728,91.429
14729,91.481
14730,91.481
14731,91.532
14732,91.481
14733,91.532
14734,91.584
14735,91.532
14736,91.532
14737,91.481
14738,91.532
14739,91.481
14740,91.532
14741,91.481
14742,91.481
14743,91.429
14744,91.429
14745,91.481
14746,91.481
14747,91.532
14748,91.532
14749,91.532
14750,91.429
14751,91.584
14752,91.532
14753,91.481
14754,91.325
14755,91.584
14756,91.584
14757,91.532
14758,91.377
14759,91.532
14760,91.532
14761,91.481
14762,91.429
14763,91.532
14764,91.481
14765,91.325
14766,91.481
14767,91.481
14768,91.481
14769,91.273
14770,91.481
14771,91.429
14772,91.481
14773,91.481
14774,91.377
14775,91.481
14776,91.481
14777,91.584
14778,91.481
14779,91.532
14780,91.532
14781,91.584
14782,91.481
14783,91.481
14784,91.532
14785,91.481
14786,91.481
14787,91.532
14788,91.532
14789,91.532
14790,91.532
14791,91.532
14792,91.532
14793,91.532
14794,91.532
14795,91.532
14796,91.584
14797,91.532
14798,91.636
14799,91.584
14800,91.532
14801,91.584
14802,91.740
14803,91.636
14804,91.532
14805,91.636
14806,91.740
14807,91.532
14808,91.481
14809,91.636
14810,91.688
14811,91.532
14812,91.481
14813,91.584
14814,91.584
14815,91.377
14816,91.532
14817,91.532
14818,91.584
14819,91.429
14820,91.532
14821,91.532
14822,91.584
14823,91.584
14824,91.584
14825,91.532
14826,91.636
14827,91.740
14828,91.532
14829,91.584
14830,91.636
14831,91.636
14832,91.532
14833,91.584
14834,91.636
14835,91.584
14836,91.481
14837,91.636
14838,91.584
14839,91.532
14840,91.429
14841,91.584
14842,91.532
14843,91.532
14844,91.584
14845,91.584
14846,91.584
14847,91.532
14848,91.688
14849,91.584
14850,91.532
14851,91.636
14852,91.688
14853,91.532
14854,91.481
14855,91.636
14856,91.584
14857,91.584
14858,91.429
14859,91.584
14860,91.532
14861,91.481
14862,91.481
14863,91.532
14864,91.584
14865,91.481
14866,91.532
14867,91.532
14868,91.636
14869,91.636
14870,91.584
14871,91.532
14872,91.740
14873,91.688
14874,91.636
14875,91.532
14876,91.636
14877,91.636
14878,91.532
14879,91.532
14880,91.584
14881,91.636
14882,91.532
14883,91.584
14884,91.636
14885,91.636
14886,91.429
14887,91.636
14888,91.688
14889,91.584
14890,91.429
14891,91.636
14892,91.636
14893,91.636
14894,91.636
14895,91.584
14896,91.584
14897,91.584
14898,91.636
14899,91.584
14900,91.481
14901,91.532
14902,91.688
14903,91.532
14904,91.481
14905,91.532
14906,91.532
14907,91.584
14908,91.481
14909,91.532
14910,91.532
14911,91.481
14912,91.481
14913,91.532
14914,91.584
14915,91.532
14916,91.532
14917,91.636
14918,91.688
14919,91.636
14920,91.584
14921,91.532
14922,91.740
14923,91.688
14924,91.584
14925,91.532
14926,91.688
14927,91.636
14928,91.532
14929,91.532
14930,91.584
14931,91.584
14932,91.481
14933,91.584
14934,91.636
14935,91.584
14936,91.429
14937,91.636
14938,91.636
14939,91.636
14940,91.532
14941,91.584
14942,91.584
14943,91.532
14944,91.636
14945,91.584
14946,91.532
14947,91.532
14948,91.584
14949,91.532
14950,91.481
14951,91.532
14952,91.636
14953,91.532
14954,91.532
14955,91.532
14956,91.636
14957,91.584
14958,91.532
14959,91.688
14960,91.636
14961,91.532
14962,91.636
14963,91.740
14964,91.688
14965,91.740
14966,91.688
14967,91.740
14968,91.740
14969,91.740
14970,91.688
14971,91.584
14972,91.740
14973,91.740
14974,91.636
14975,91.532
14976,91.740
14977,91.740
14978,91.584
14979,91.584
14980,91.740
14981,91.740
14982,91.636
14983,91.740
14984,91.740
14985,91.740
14986,91.532
14987,91.740
14988,91.740
14989,91.740
14990,91.584
14991,91.740
14992,91.688
14993,91.636
14994,91.688
14995,91.636
14996,91.636
14997,91.636
14998,91.740
14999,91.636
